condition,AF3,F7,F3,FC5,T7,P7,O1,O2,P8,T8,FC6,F4,F8,AF4
1,-7024555.41420094,-42598361.54189142,-176845.3493292013,-12146423.56177758,-4765452.011875564,-267499.81686985545,-2461483.7597926334,10382909.677770449,1125688.0240977022,23151558.963213664,20297391.43494534,-28050734.33906751,30276468.77994194,12257338.91483562
1,-6036126.712280674,-41456254.86378542,-722552.2826203257,-10194039.141153527,-2115716.790321073,463992.3188526819,-1523537.7089206313,9638866.601178758,-499267.6220552554,21080157.334604338,20789951.300024938,-30825980.361678995,26472075.573291067,14928432.354864126
1,-6544998.449864575,-39786584.48094795,-2228594.8073791536,-11071729.030149309,-1312399.0004664455,1546106.5359854319,1412056.9729428848,9818553.864442602,-1276805.4322812615,19766039.116839018,20342325.85911415,-32094982.763857517,24324715.313327402,17106296.302294727
1,-8244175.37594411,-38342009.79432376,-4017143.674902601,-14217219.67183906,-2034949.3921597856,2806155.5692149247,6036465.393612209,11207912.962262772,-1073695.0522682427,19559152.028800376,18889761.762594163,-32085419.94901163,23705276.120376915,17809889.073587824
1,-10180700.391785165,-37625440.269476,-5260711.807120374,-18044242.621840917,-3290137.5229620067,3871304.5003726534,11251407.440924574,13350363.675860476,-262804.4057977408,20207631.730355673,16801984.531295612,-31816173.186922245,24043324.82140072,16954193.505694725
1,-11255944.652538817,-37651169.100436345,-5349786.924413665,-20722824.83143476,-3993221.9005655483,4415081.978363925,15588519.766416244,15281466.497145643,462882.7900994534,21019767.681992203,14779141.019417666,-32521108.8568675,24720330.60651759,15226865.926303912
1,-10788083.995503886,-37962771.50000478,-4159458.4420887902,-21064975.095256098,-3593521.4632575614,4376315.821761759,17821562.200145245,16048733.926826572,472667.87061516376,21230497.191977866,13567821.90453249,-34948621.19210752,25368737.623956487,13631095.148403062
1,-8848538.574163767,-37905110.44214625,-2089562.9414032553,-19065197.894046273,-2377658.596561172,4019014.133868671,17482371.975976888,15232107.310162418,-433455.715692846,20380218.52444413,13627805.831588918,-38912069.30995109,25943446.531581193,12946629.166342432
1,-6212738.764301781,-37003100.77192279,134964.89462585887,-15822719.022718767,-1267076.5255379197,3802514.307060703,15035324.308501985,13187227.053203411,-1880093.4409504044,18521850.3127724,14909250.434622986,-43334045.82206616,26573639.570236046,13355003.466474432
1,-3971513.6353088934,-35237506.23325136,1797636.3650605693,-12899503.158886362,-1225454.498803774,4142185.9076300114,11635692.368609583,10889616.652351467,-3084920.4734032704,16171342.74792842,16851307.43563611,-46763887.14121702,27326019.22582096,14368984.43783357
1,-3018922.9735342553,-33065188.988144953,2488699.974071811,-11469831.928693458,-2627549.1042369124,5196358.403549812,8602981.522718247,9471269.372809963,-3257468.604332905,14049261.859888751,18611268.376059193,-48095663.15708349,28050262.513301037,15064522.733627154
1,-3676929.8933895356,-31175673.415618055,2225731.271096079,-11727080.645389032,-4969671.878901777,6788663.561543222,6871387.47251702,9694060.947866162,-2017756.7238746942,12756703.685817176,19426911.09244324,-47109906.65495481,28415033.401717477,14498527.779127542
1,-5622206.192368247,-30123992.267569114,1355559.6892675892,-12867445.72459509,-7103360.951267018,8491611.936897775,6670423.996581922,11620168.751198363,387939.0655500499,12543496.104077801,18952356.789383646,-44561769.15923378,28116096.42029776,12141121.541778347
1,-8108774.433596697,-30045475.708177134,315874.40429944097,-13646039.927003816,-7865211.836367145,9811941.594827047,7552922.756813619,14620999.982618134,3188234.180285119,13262083.341222074,17416717.419602077,-41783873.84470006,27122082.102719843,8158519.9674574975
1,-10332144.707561895,-30604409.290622905,-595058.1898113588,-13176897.497157136,-6741061.039424463,10378625.46508325,8706400.154652702,17686711.513442494,5449883.968318777,14498165.89159386,15530419.572743075,-40027043.98881999,25788872.175319165,3437535.9722444327
1,-11733767.222832933,-31189791.480445355,-1309932.8996680062,-11507452.348607285,-4180561.5588285103,10053292.326728504,9357494.724557653,19857254.415192824,6511102.98067341,15785052.366237925,14173313.797042679,-39887969.51628265,24744248.616140287,-672284.1999085569
1,-12112783.683429373,-31232287.90289659,-1907954.0161753346,-9623059.200874954,-1379743.1458585565,8937306.742211273,9069136.863593439,20562228.622436315,6260440.73559202,16783390.83756704,13995140.829415385,-41107234.59267811,24581318.232535448,-2825900.3214380043
1,-11543074.43026783,-30459163.883581243,-2429709.6960013174,-8862275.139985397,346647.3199502638,7301921.123340375,7825961.875270035,19735364.835780807,5124417.608688166,17347483.248997375,15101902.776937526,-42809202.00473838,25521982.448850922,-2202256.0832412983
1,-10204442.523788478,-28958133.294188365,-2730676.2967268922,-10067905.650613677,252776.86662292082,5490403.600928474,5934795.0929660285,17703752.456741646,3785469.5493113925,17475086.087083407,16971692.881362207,-44020038.47648354,27245709.50027308,1121510.2065117906
1,-8263823.344804567,-27046904.57025948,-2488762.026537198,-12966405.922529388,-1464957.9287642548,3831255.6149779973,3851330.673307806,14962174.28854843,2793836.7326526386,17204071.851188414,18650077.51477221,-44170304.593967006,28999097.12078321,6109314.590631185
1,-5878056.270413283,-25060318.171884794,-1382538.662990905,-16159122.98555347,-3797622.955759267,2577534.7273362637,2039652.8457151097,11973164.453527264,2286663.841168275,16539940.87823358,19154559.638051737,-43326317.666399166,29949034.466983814,11083425.86198483
1,-3284285.4435329637,-23199612.78373642,657763.715457382,-17776888.620546535,-5465068.905125562,1870204.6855861945,899990.053150725,9080027.430454712,1960689.3822169625,15464587.096966276,17920569.10859388,-42064867.184243694,29602315.03628227,14334576.428476768
1,-871499.1805975408,-21523430.484379835,3283967.5906678834,-16474711.841245838,-5564413.040229228,1721715.2113704376,726747.6355899485,6527372.7439223835,1301280.2618471454,14012625.62992496,15092290.708936265,-41102873.14087717,28069451.640830617,14801476.264239976
1,863904.1155134912,-20048043.097840577,5770903.2417285945,-12234216.777816927,-3987047.397316445,2022169.573900238,1641948.1987459392,4513705.711168649,-69696.82422364235,12348670.834827382,11518483.140571611,-40906498.85453852,26029513.737104658,12536204.398175556
1,1491865.8539398427,-18845976.1228424,7275098.02181102,-6519698.515962548,-1413714.2221666959,2571804.6119214315,3498837.547846829,3195378.8487299955,-2125764.7676090566,10771986.705703812,8437136.995786397,-41481689.60519282,24412773.449994233,8731961.198039964
1,864687.8572735054,-18043362.021074444,7196881.895940712,-1664542.7243890408,1069205.9828503358,3135183.1857982455,5821855.572331447,2618666.4373263502,-4397219.593494199,9619976.792995056,6972105.68421628,-42421600.521825224,23967691.021041796,5260470.431009181
1,-759795.6900820512,-17707768.526581682,5466248.524917181,226912.3951701364,2503420.6556737837,3501112.5979162194,7876307.521592342,2633027.4561987394,-6182596.503138817,9111565.402148303,7656673.233265185,-43142122.50141652,24934126.946715053,3882888.487622123
1,-2783746.6833921806,-17720941.695440322,2604300.5886731446,-1688079.339218001,2468246.247398967,3528934.2445671987,8906666.321647251,2876845.0652455417,-6893883.201216919,9220930.12381788,10197106.333099043,-43157683.30090797,26977947.784286607,5463357.511439764
1,-4513782.11469107,-17763973.196547892,-477015.19480192504,-6551163.125525879,1191207.9156358188,3171141.9539480796,8470135.05407361,2895001.4255122566,-6349134.930169147,9667050.3505341,13588270.795109205,-42266176.97816729,29396009.33475762,9542428.710332511
1,-5466309.769305858,-17472029.29342677,-2844120.3018375174,-12184283.659117894,-644335.8818018567,2477039.9134058002,6696199.744115283,2361018.5052940394,-4858946.921202125,10043421.477525655,16535698.22017323,-40591931.302167475,31460188.825974137,14488390.442371355
1,-5571926.525982642,-16684170.200140998,-3906668.329162305,-16102445.260412533,-2256197.832098661,1588482.2018929885,4299868.327770081,1290237.0769073328,-3067478.359434088,10028665.292119924,17996882.957527693,-38515363.826863125,32712298.613952704,18187815.86392362
1,-5167277.382181129,-15615158.453229051,-3613925.075767523,-16652532.029368129,-3098121.353711437,729285.8870868804,2289143.1457662014,105263.808710141,-1639481.3904938623,9562995.52593445,17597918.980611436,-36550083.545900345,33073934.875431675,18978037.00711069
1,-4779824.06427464,-14792635.196215073,-2408376.8708680007,-13721087.917416282,-3033781.804494268,173323.33318184048,1481674.8768555953,-522378.02732141933,-960782.2124320269,8884701.204500206,15739759.174429616,-35210802.71281064,32756929.553414304,16393280.663450789
1,-4826474.805798435,-14742869.382072147,-981492.603422095,-8686596.017682463,-2310393.72037704,172155.25982070158,2077219.0520201148,-6983.768109665663,-1002448.0572808463,8394958.499462293,13355294.349352581,-34884030.55505863,32072497.609738216,11369164.139407424
1,-5392602.531857201,-15590426.34814743,37899.67126385245,-3680112.0526755475,-1383339.3780585616,844363.6101986843,3531369.695317838,1802572.8471651534,-1402564.4918819275,8418529.297706228,11443090.575620078,-35706107.855142,31273533.990314394,5803792.9701764425
1,-6207390.522245185,-16837410.70839067,319398.690270622,-556223.5036884219,-689511.0928261421,2067291.6416990047,4826605.734416298,4456591.653872492,-1700841.2602809907,8994345.396693673,10605216.694883231,-37477335.48142138,30511597.674118724,1687665.0828987523
1,-6816574.013365316,-17520647.88626684,-95854.75576449299,-92761.18016410754,-464419.03426319617,3440270.5755585227,5015122.850687255,7039829.7843845645,-1586261.5981219076,9821645.340317246,10805936.347483564,-39667994.558660604,29893165.991794717,228542.1363805906
1,-6843744.945708719,-16727560.496256864,-884592.3317255959,-1784835.1465969165,-664661.6734500772,4377855.305949569,3742178.624877286,8571296.965818265,-1025107.0991942477,10404212.876941396,11452607.70823437,-41561617.44643516,29548359.573499646,1395608.0840470558
1,-6189629.092697392,-14206224.071092108,-1623126.367867146,-4272116.49247382,-1014051.0847668101,4333700.352673648,1453088.7653297703,8480031.326388614,-216643.85271796124,10321553.950025894,11739524.83726243,-42518051.7897422,29626168.004680723,4085775.5149963647
1,-5064785.18472738,-10691623.256193427,-1967844.5771554466,-6118356.570443328,-1150043.6743521718,3074130.422834873,-844189.8587872906,6909018.87975438,573035.5173093631,9476355.906076275,11070351.451041847,-42254357.586912684,30198350.399729922,6789958.131825068
1,-3852582.57740531,-7683201.046550151,-1764871.8213111171,-6513895.706695566,-811488.6166953583,863426.9218060111,-2136968.967904221,4673291.417889994,1182471.8712593187,8170982.904879194,9346216.472743008,-40996056.124523126,31139312.06902563,8383363.203481697
1,-2894324.1635387638,-6708104.990928335,-1067142.37623121,-5558079.600514922,13559.771455603637,-1563973.6831303712,-1974012.073436149,2872630.175517183,1622763.004308261,6955351.844145244,6985429.870060082,-39391757.01048959,32089561.131344303,8618098.101438666
1,-2323484.4642400127,-8425721.08544261,-79719.81544545623,-4032992.8680767003,1056012.9548007562,-3275951.2740048557,-717655.4191315394,2342981.11672429,2006637.1516433605,6317670.859459801,4683324.004121847,-38204136.173414156,32572698.32147047,8080336.691534809
1,-2035856.0021143956,-12075889.756735617,926801.8979938184,-2853103.0164645077,1882596.481213394,-3559502.0654115435,662282.9302639425,3223563.2466783067,2395611.747324141,6385843.722007959,3051848.845834704,-37924632.86672126,32238383.531066183,7682051.305064876
1,-1796130.7579954194,-15637384.770591915,1699933.905120432,-2521891.0332427644,2121286.948599787,-2284848.3038249034,1133604.5265615312,4865668.237219173,2675958.0640154397,6813177.739104676,2331634.1658790614,-38522046.193781644,31106592.26400236,8014445.208934184
1,-1403367.8297800554,-16698231.686833644,2067264.112084061,-2883182.104953943,1686609.3627232916,-21113.332060436853,173190.57557652052,6138312.620878169,2557482.2129872288,6928624.872462831,2320469.8014769596,-39475785.58009161,29657550.330078207,8952176.645452427
1,-813498.3621384758,-13639690.332313746,1971301.7475815178,-3266047.007030433,875402.1216315465,2182010.197308436,-1957809.1282533791,5983933.576590232,1713705.992125747,6087064.870318961,2541085.376043307,-40086139.036910236,28676137.303879857,9732542.68116667
1,-155831.24550509956,-6529631.844888923,1476190.0688890095,-2903776.58958822,256494.73054015433,3264762.988900202,-4380103.601043122,3950062.184137421,-5919.266688480435,4038864.8496748772,2543153.887981853,-39887010.481695205,28890512.761930324,9442231.55735521
1,348063.42569078685,2762147.174306241,745112.0152856391,-1377043.5510138902,387564.124457531,2661912.879155469,-6090963.616555186,436324.4413484093,-2410266.110536703,1117093.7472411746,2166218.462523152,-38916244.45913693,30569859.34817062,7600222.119063694
1,498669.7129530778,11324697.17191412,-9939.172518281757,1154064.1647285314,1501245.2257044625,594798.006627806,-6490766.11595087,-3459023.845953541,-4948854.52318177,-1869315.2833943085,1615792.4372840202,-37676659.5241059,33291155.449575853,4474136.296316804
1,194102.6043736044,16485732.90794652,-595572.1809255739,4030603.6215185584,3341388.59316773,-1996618.8144668976,-5641944.1640235055,-6410641.168632547,-6870862.4563527275,-3993814.158772314,1309211.9433757002,-36807081.4824203,36017567.41585821,937927.3393535519
1,-565561.7415310206,16981005.041812588,-901002.8361282116,6420192.237275505,5263670.22146493,-3852358.816588163,-4135312.7476784335,-7424556.865644539,-7499819.609901971,-4643647.181280117,1575464.8129523285,-36664855.356956676,37481334.78622061,-2034551.9440168305
1,-1723393.7925733803,13442559.995069569,-934424.7767768564,7705307.594290802,6569477.521329193,-3931408.6586504276,-2678288.0357763055,-6224440.450077086,-6503363.2955420725,-3803489.5510963444,2377193.3715781434,-37084061.48632237,36708753.5518288,-3920421.9872816657
1,-3208124.168556087,7990892.10943422,-815062.264284128,7742377.344082753,6898533.322238077,-1839382.0043055958,-1675968.7463965684,-3304573.2459331034,-4036825.7293392904,-2044792.7038677926,3219040.9732681583,-37472014.54430057,33446189.130171064,-4900289.472211133
1,-4935296.118497176,3172647.814721816,-721063.3612687453,6883197.321982182,6452949.3516675355,2040764.1607535493,-1058144.0301911237,345576.523815952,-695423.9648558176,-226412.53432382646,3314912.247054515,-37197531.68899797,28286834.023466103,-5663009.745326993
1,-6772325.753050933,798218.91021626,-812205.362914945,5773389.369798272,5905325.387137026,6747900.371613182,-433425.97378748836,3691605.7197484556,2706845.5535314833,939091.7224944514,1952417.6135062026,-36034950.331534564,22438503.463880353,-6900390.690637746
1,-8512225.945958667,1244899.5653854806,-1158376.5428572057,5041824.016156165,6019896.912839879,11149233.585911715,559461.4891314724,6062421.7829770725,5441120.884313927,1231557.0143684985,-1116862.024210354,-34378165.71465059,17241643.436232828,-8826428.459640216
1,-9903293.4879539,3513904.520127223,-1704144.3642108492,5029176.504573421,7189100.250149429,14352144.090962531,1949925.2804955957,7342145.198768428,7127369.596218134,1006975.6324302977,-5460779.011604379,-33066828.543231126,13659206.15460536,-11034901.821330162
1,-10742243.898823762,5929166.303097154,-2286221.6201143526,5668669.355555659,9152391.050951842,15947433.10641862,3383198.729978493,7888524.161729811,7852309.325550491,979396.4999771331,-10051799.45491421,-32900924.82689716,11962935.348654406,-12782834.081164116
1,-10983021.419839129,7060127.261062587,-2699369.7237517196,6554060.105905515,11073555.689246915,16017076.31514168,4343786.134265273,8250813.619669812,8094813.365998473,1814236.218659656,-13641845.05685531,-34120374.79672458,11737949.195614023,-13501806.908393187
1,-10784455.772345275,6387754.120198214,-2785230.8600648395,7148398.384628276,11953300.60348436,14959320.607261328,4496996.313766816,8842729.66620152,8489589.085069107,3739721.0831412827,-15271388.691628426,-36168597.766461894,12174616.7299959,-13182753.50324636
1,-10444486.27571665,4419190.47181505,-2506318.1402704665,7035040.542494028,11159788.42804161,13254150.695020903,3916977.1311878967,9729652.028224152,9526968.579026686,6372473.520730524,-14681487.304591592,-37910044.18548373,12488982.759998262,-12360888.25047667
1,-10238654.822859373,2268576.146693266,-1970640.9129099594,6104992.086411672,8785511.312445182,11287516.331605498,3051577.4239315214,10620955.089430748,11316710.494729841,8846645.816987323,-12430328.444268325,-38211821.81989371,12268375.258723158,-11699413.961026838
1,-10253136.926760709,985919.7236628418,-1392495.6496531914,4607913.46589486,5630295.1700680675,9291689.186560147,2453929.8009798424,11055442.107271874,13522225.01930232,10188418.069480386,-9647853.69184845,-36578123.30880139,11592200.148099346,-11456423.114255952
1,-10325346.357157642,1004873.4515343824,-1004543.4574001144,3051449.233275835,2816397.163857561,7385451.188795695,2465498.9518545475,10677568.94970001,15502598.259856775,9761055.488587769,-7533251.302648746,-33475646.536265295,10897054.43605441,-11223159.47004519
1,-10152070.551309742,1972715.41582027,-961153.442915979,1993566.961655593,1244342.6091548093,5652149.299525394,3061615.4089500797,9462073.787860196,16607372.126605244,7573253.564497482,-6827280.708818755,-30145433.479347408,10678892.464358354,-10160043.456035538
1,-9519563.255761137,3003405.880635225,-1279151.366985874,1814746.6029334294,1181428.5830542427,4192468.8725255053,3952425.3059498314,7770342.901906119,16492043.905170143,4306766.848879962,-7509164.897673606,-27978081.72059147,11194071.980300428,-7621739.640342801
1,-8516348.618159425,3183681.106281542,-1844324.9464622329,2565254.8546226057,2193614.338478781,3121086.070972458,4851884.486968168,6202312.5857007755,15299986.919623017,1046892.6095069215,-8863343.951101305,-27777280.00404812,12307508.926229997,-3770924.3786131865
1,-7574293.590841137,2062015.7339575265,-2477715.074859848,3951583.9921648395,3437064.743956272,2516802.329360819,5709356.490550371,5308295.569977441,13608871.594764646,-1166753.9039936175,-9882858.1598766,-29309414.37549488,13553247.6444439,263797.00589026813
1,-7270524.855083661,-110869.55875230415,-3022523.3731510434,5465779.860206545,4132325.0131052528,2362440.641718931,6725431.231246053,5299634.194595149,12151315.100465631,-1770885.2136013692,-9810197.46912275,-31390516.86655264,14364747.478530493,2873843.8163957116
1,-7971081.518707382,-2484453.6672016117,-3400224.9662796427,6598193.727807563,3959751.775864307,2515117.526211508,8130276.927853868,5907626.268344934,11439809.62170179,-900121.4571516844,-8546236.830176143,-32474767.86891458,14351081.13150607,2875029.3291410054
1,-9519180.694947103,-3988952.437163344,-3603614.4733584663,7038984.578802288,3178601.273604452,2732793.3303558403,9883376.735381128,6476484.207589897,11490372.16624052,697887.2002189872,-6721038.871595596,-31438409.840870153,13477583.038845453,295113.78689609515
1,-11182585.407190023,-3816196.570606308,-3636721.6487551923,6783859.142160751,2437108.2982551367,2757771.8732575607,11530923.107472941,6263523.112479397,11804069.86865663,2013858.044415358,-5387833.812429778,-28147618.627988983,12061451.893176293,-3481609.272903781
1,-11950110.975397306,-1793339.287848212,-3451127.742489377,6108103.539838219,2407101.83704706,2430960.4106313065,12369269.390476609,4810701.044106229,11637475.701642357,2234385.3600620325,-5490032.014190617,-23515717.625028584,10587941.32645167,-6385610.965301384
1,-11064450.882957863,1505152.4035090893,-2936979.9626787957,5433320.579468391,3452271.354782079,1790374.2674785864,11858033.715011846,2202886.290280438,10434081.90369314,1096436.5326023914,-7365248.786223105,-19028753.75649346,9444175.179335704,-6821298.837808439
1,-8513017.83278456,4953638.367618789,-1993874.1570529954,5153287.421774285,5492011.93114255,1101745.1281414677,10036929.43862137,-927637.2133772671,8186551.039405614,-1022885.2067987146,-10532572.918948382,-15998476.95385698,8710442.459535608,-4646141.503420785
1,-5178348.207244109,7303742.158736341,-648260.8072109894,5491321.980348655,8094081.292362354,785610.0159923845,7657868.021797468,-3667794.86865721,5518764.856547353,-3318640.3860057513,-13869876.316076364,-14937057.819235638,8121810.082283881,-1353220.003638367
1,-2506388.616497635,7676052.803927162,862799.030152383,6433996.217014471,10702869.020823246,1245683.752654444,5891155.048110603,-5237139.68797301,3417054.0073382235,-4965460.415337408,-16098023.011686128,-15369403.084025828,7228045.906549448,718759.0289500258
1,-1812149.817648924,5916767.289046465,2120838.677546438,7744853.660582541,12858063.728974888,2656348.5911285263,5721689.189148242,-5341065.565271812,2731680.473076387,-5518876.488959581,-16342921.35765077,-16155245.983390931,5676931.654519342,-256914.05110081928
1,-3564870.267476862,2670199.2617668067,2688775.9344763383,9032201.187552437,14299086.643254492,4806748.914667835,7360664.464174936,-4283041.590754313,3707298.664976676,-5113409.724634189,-14514374.940811,-16121132.273926478,3475555.485874369,-4443701.759141047
1,-7044731.800088972,-868998.892032002,2339610.036220854,9841268.744008906,14943329.270368554,7096073.238981911,10023722.802012498,-2780328.478669674,5802404.356449274,-4362948.900624527,-11333816.981098054,-14650410.008332958,1084508.8161473232,-10089682.203343133
1,-10595044.815574922,-3426659.092201691,1220382.3470354967,9756235.834378315,14804464.97061229,8717124.985500962,12239882.230466157,-1585270.5478085466,7912917.053235346,-4020205.026952392,-8010530.6707498515,-11925338.208091417,-723342.1879900804,-14364616.871859666
1,-12385364.437280586,-4148409.879693893,-168242.47718663578,8509950.646703104,13933906.668414755,8972690.574956449,12558952.056504197,-1117269.1579155945,8898111.211716529,-4574725.0000666445,-5724105.17370857,-8725050.778784458,-1189212.2892670461,-14841231.964391604
1,-11316746.446375864,-2917632.877253141,-1203864.8038768359,6091178.935103243,12424117.437694741,7587988.400687796,10291274.937401712,-1300224.5213843677,8138311.012867119,-5998266.794791661,-5147051.0665375125,-5931787.323606652,70702.67126346478,-10787999.561192045
1,-7601809.094798022,-361071.94180991565,-1484046.597671313,2814693.3504608274,10448199.356929768,4862712.828597055,5882537.262626156,-1680923.7787600607,5830896.642670731,-7765809.918192232,-6208451.686385866,-4044249.400231506,2847757.1941196425,-3540434.2175552654
1,-2704352.0264558587,2448577.4691676414,-1087920.8623956847,-697591.1732511136,8275659.798028692,1570883.35269691,720558.4563287441,-1743509.4874209543,2870639.516461876,-9133343.139807427,-8182513.656662391,-2964435.7836458706,6381056.492664361,4246291.044291074
1,1347683.9114660935,4448303.485086456,-583589.7371360789,-3660440.1755629345,6222801.637438591,-1358517.0387765623,-3519848.152508473,-1227529.9805515327,385159.14447855914,-9519859.123061834,-10043640.511072667,-2142649.377600865,9644437.10862093,10007688.80918032
1,2931917.9348588455,4990229.951210557,-734642.3402076921,-5376206.338350649,4550779.556699277,-3227897.992826142,-5641869.149223217,-265063.20879910636,-820260.7856385702,-8792316.254258035,-10923687.135774663,-950100.5395666956,11746533.745790321,12512582.556085767
1,1589657.089725463,4026843.0988993337,-2036249.132204341,-5507013.12496362,3371891.8245232147,-3829841.5897820415,-5406008.859347714,731238.8953707687,-614784.7340927684,-7312173.311074181,-10475834.14036433,970043.9403160441,12254657.774655586,12237572.268338587
1,-1808126.5175157145,2022277.8584473825,-4335102.427409687,-4242824.514542102,2627603.3181854514,-3449611.6429749257,-3504707.6224028966,1345089.4110368977,478953.2233634334,-5734421.020911865,-8997751.833740693,3578611.8373467084,11295647.440714147,10724362.490403863
1,-5552243.245648489,-332898.74957327556,-6774001.172187972,-2263700.7240646044,2155725.0693814303,-2624018.676504987,-1098434.9520909842,1418492.708280466,1636675.705379172,-4680491.234334191,-7270002.9133672,6581033.468695984,9405114.482447201,9398750.23358745
1,-7966312.0827749865,-2445971.6818158375,-8141952.310596553,-482800.16822953767,1801840.8792216384,-1805554.253972782,794798.4780827651,1135370.9423957618,2195742.2450118037,-4463595.89373905,-6183367.920128174,9693350.602624932,7225709.0881699715,8642742.075750045
1,-8195310.961364252,-4033381.9983466184,-7483764.870262613,331072.1714143771,1497742.2935134599,-1131225.374237229,1720998.5298400111,880407.0755274596,1967871.3881423173,-5000548.809146731,-6317470.845582261,12824106.039509734,5223694.863025013,7715810.497967327
1,-6518941.315701917,-5145262.92931032,-4656889.162652192,-120570.1201598858,1252644.3727425972,-428022.12138149235,1834768.5059027981,970054.5087855632,1248346.3852602502,-5929231.568378636,-7657830.426744829,16040899.446372595,3564902.9273105394,5545131.497954924
1,-4071903.599386726,-6031629.038229751,-520802.5417488075,-1549887.3969696024,1066620.2839964933,560967.4243277728,1615082.4723547741,1432742.8771980354,556710.9059130854,-6836989.7777209375,-9584573.507553402,19360079.298644938,2186282.5630354565,1817300.0361386703
1,-2173781.321997575,-6949013.924460017,3378926.64291199,-3235368.5440224074,835795.5810012636,1885903.2354793213,1479515.1732330094,1981873.3079664935,295042.10383498156,-7458447.5986808725,-11149049.113339223,22541197.461252697,982277.2406945828,-2414870.243874246
1,-1659502.944142296,-8014189.11024652,5501705.010647754,-4367550.58345306,332463.2691414059,3236049.206151154,1546262.062432777,2200650.164961473,536910.4386581493,-7741533.719430459,-11520729.819139494,25082551.009028275,-34228.153223474095,-5098856.831385684
1,-2561690.2063561617,-9165380.890928457,5036009.040781114,-4417452.9547002055,-702503.1716127765,4041311.7025008816,1661917.9728456254,1822601.487388124,1056301.2643908346,-7773731.773239286,-10397570.405914905,26482114.755440474,-705810.0868755258,-4376116.733719736
1,-4266460.9945494495,-10226653.591976462,2282069.941491241,-3354354.3709353074,-2396470.8915435676,3786886.2891991814,1625870.1013435011,931398.5966864477,1544893.7851683218,-7644911.392533765,-8177092.874514859,26630951.694571707,-850744.0112334398,114617.71882645032
1,-5987932.037032956,-11023949.387217784,-1508889.1799798817,-1626997.0137661002,-4613684.933923838,2355647.590442926,1422529.7475053908,-45648.879310808305,1852515.4705764258,-7349207.204539713,-5791219.632038119,26076424.509082265,-439899.7865793316,6680310.736781525
1,-7244676.442904714,-11488648.806962688,-4755229.991251933,53196.21083286754,-6956764.180625488,179447.13456489544,1289098.3722634008,-548408.781776051,2087067.4871131144,-6787334.53279704,-4271740.842111724,25928319.112165026,299442.2131425475,12216233.048347786
1,-8057935.832460703,-11702074.041461155,-6300056.995084378,998870.8183245689,-8930328.621716106,-1917653.1627884617,1574845.668281442,-173189.99053005138,2517207.9269877663,-5855560.680788742,-4254615.26598743,27377955.02127534,936764.0209390009,13785771.135008903
1,-8789707.220759552,-11866359.572464941,-5911676.437939823,767394.9104769685,-10193322.23669038,-3120000.9407539214,2495054.5987619585,1129079.7836738979,3357333.6244258494,-4549846.487709248,-5671728.261395189,31047334.968826324,1030521.0647656617,10275922.206782391
1,-9769633.67221414,-12217822.38623276,-4287292.852971182,-753806.1186612842,-10757409.92055825,-3047265.1539822537,3951905.6463970845,3053764.7922884314,4589412.5727107,-3009429.9073988968,-7788355.960518918,36528935.13698268,349023.8516744007,3157973.972484391
1,-10981657.195865406,-12919066.379168814,-2591380.649828897,-3376900.23182417,-11001757.768443773,-1959947.528903465,5545645.47206215,5125313.218388242,5944008.311231839,-1471294.3063819758,-9565938.542810459,42415670.88785969,-1013740.8355984532,-4148954.4507165137
1,-12025580.931126574,-13973033.243676638,-1805104.356689629,-6687091.257968514,-11469960.549086861,-613330.7558276494,6770777.114385515,6936706.83048292,7049635.704101577,-169512.35002978818,-10159331.820625266,46872604.61167273,-2699758.083440133,-8027020.912171682
1,-12377310.381286405,-15196525.45819688,-2244354.1940015014,-10105216.00798547,-12542503.547611978,169922.55611063068,7271850.195786774,8296845.114474218,7644168.164965229,752045.1616954767,-9291547.51322137,48500053.02904253,-4290991.754234772,-6586435.365536481
1,-11769634.830425339,-16272375.734828653,-3483956.080266223,-12945286.744952466,-14164210.95316528,-27727.161975224266,7000289.060549606,9208864.994580636,7702451.630546978,1260084.3567298243,-7325006.356215211,47055172.698550805,-5534703.698839462,-703961.1802899865
1,-10431836.210239826,-16869488.73856461,-4683657.593134039,-14519031.742482947,-15795010.716047635,-969823.4319700215,6185218.383325594,9719027.71755688,7396007.74245518,1382891.2475187338,-5021714.15012997,43646941.83381401,-6458182.193407847,6418657.8513064915
1,-9013522.650074484,-16786101.691628095,-5092248.618347078,-14323758.127134914,-16640635.153841164,-1886847.076469145,5155071.395964887,9760861.182033796,6920065.029250783,1139578.307978204,-3153068.8139632116,40279457.23815525,-7310779.995053247,10951928.973128421
1,-8220192.307756406,-16050193.476717697,-4431882.071225448,-12274169.22625088,-16063631.450482192,-1904658.6474696717,4138770.9042419596,9119020.300890112,6317364.576390447,509002.0588459904,-2184225.2839244865,38952265.40003097,-8376909.664033972,10469438.887461292
1,-8377510.545072811,-14919633.019472482,-2965654.570929546,-8858263.316581866,-13961845.779581117,-543190.4139851425,3176853.704438975,7553239.50416335,5431709.252056743,-532109.3208535439,-2183974.8544577844,40754190.596741356,-9779489.764822645,5205678.528356502
1,-9198327.34189159,-13768175.898282338,-1254854.363670062,-5082329.489060626,-10900398.487515291,1992878.4201254568,2187912.4136639982,5009390.145069969,4033537.6590857506,-1927397.5594428736,-2952560.3218096355,45387963.30484921,-11393700.770509113,-2133937.710612849
1,-9912831.155515218,-12904445.25652422,208927.25263065935,-2152993.0056478023,-7902657.017764729,4893554.6204106,1124669.9160751402,1775580.032868763,2036234.080450426,-3480642.1932495493,-4224415.705414895,51340531.137475744,-12918130.984878981,-7883381.720915929
1,-9704569.415803153,-12415574.657835538,1260427.1952125223,-991064.2872272904,-5986412.119683405,7148820.25721239,92288.28827812732,-1537355.3659634439,-349701.82720060647,-4877429.969892882,-5780533.989182067,56591460.390852995,-14051796.539886981,-9398557.95888067
1,-8204531.738219993,-12124336.700888364,2065607.6444260725,-1796812.9202369226,-5676657.0794546865,8056335.713275033,-670154.9979424713,-4210638.407406822,-2646343.7355822423,-5800195.079281767,-7406164.237068765,59500523.191079944,-14662516.380730867,-6424115.271968146
1,-5748695.046407341,-11692375.366475647,2906747.141767751,-3903228.21889022,-6753454.703135906,7555542.624465555,-945578.2162539605,-5728086.001114106,-4327617.95689745,-6084600.077644314,-8775631.5194759,59458527.50842978,-14841808.158026168,-1119742.0103420708
1,-3233314.9366572844,-10819927.480825176,3916217.2641935763,-6033330.027795974,-8379797.888542283,6212444.614477044,-730492.4967557675,-6018269.636651964,-5107789.499662283,-5827875.693986808,-9424584.908138793,57034255.9669483,-14815219.151112793,3227683.8745102016
1,-1634455.029474424,-9431725.793652292,4945652.442187028,-6872835.077056454,-9554358.396459712,4873519.393784547,-323595.21401004423,-5493339.238547545,-5124631.8430687515,-5374948.633956807,-8914263.923366498,53609664.042462796,-14768030.843689537,4063348.114847691
1,-1458830.582285555,-7739310.8433648795,5653727.925737753,-5692082.793977295,-9653952.504814407,4186364.542965407,-227835.86553642823,-4855776.758953107,-4897070.890117718,-5170566.196713201,-7133368.884857172,50725925.17047751,-14699226.446832683,962004.1282717711
1,-2443010.5472573633,-6137253.862390959,5743988.745079901,-2706867.044893328,-8772096.875889026,4251271.383261898,-897633.8880620116,-4767181.376493921,-5067936.982512186,-5540371.070562172,-4534136.735757568,49458924.06922802,-14400335.555577315,-4187360.2581739766
1,-3684444.576538534,-4988827.897047294,5184281.394433778,1009253.4569238649,-7661782.829010648,4589158.913833451,-2467255.019239637,-5544788.422809231,-6069847.439808186,-6508173.787420607,-2080347.5174605213,50080447.151224956,-13580623.909365278,-8277049.517716121
1,-4144434.4189297357,-4426571.644630603,4253826.229987947,4020867.8444650047,-7303057.593304519,4434947.7470664475,-4623732.751380868,-7034597.378642738,-7898151.076380622,-7745454.700474226,-835778.1213140213,52096546.55655972,-12070827.225078901,-8723583.467942892
1,-3248527.376901805,-4288928.56446191,3379909.2621586868,5186582.05632266,-8325590.991892724,3190100.116246011,-6717353.539794006,-8716981.180900086,-10112178.134455048,-8688236.857447749,-1362717.7714045118,54581185.80075821,-9986594.74698255,-4890668.071245178
1,-1246835.2802930411,-4233871.307352693,2866599.647528828,4152321.317386301,-10606107.925181264,787037.468589024,-8072099.389058389,-9983535.679243242,-12055258.708784668,-8777030.73909021,-3275087.9556615953,56619313.06995376,-7749614.699619253,1574170.1808264446
1,877423.7775821738,-3961382.389800237,2692574.891770327,1455998.9746592697,-13275004.539605139,-2229606.521826022,-8341313.485276938,-10443663.76326466,-13165909.385609068,-7716159.934908669,-5265816.908274671,57666897.202499576,-5939840.483948996,7645802.566003055
1,1916900.162488938,-3407258.1860739863,2516945.380791417,-1774924.9551108314,-15146106.132012775,-4946892.5583975585,-7717321.6034498755,-10112853.156431928,-13215359.212631298,-5636551.362084941,-5687069.320386187,57704521.22424787,-5044819.981488224,10550789.700539375
1,1101137.7829668568,-2786463.067741239,1904408.642705064,-4350987.09559862,-15346755.011821764,-6524052.467813019,-6870767.699946517,-9398568.059795486,-12363952.481381884,-3085278.1004648395,-3430544.6062043197,57160210.47054342,-5231520.833600618,9223132.528152958
1,-1445367.3370063216,-2457180.59838917,642236.8771384599,-5504078.398049999,-13804898.419375287,-6601637.416195032,-6633114.967509815,-8897967.497247038,-11037234.346214252,-837467.2616628003,1365903.543275995,56664364.08199313,-6259816.262791454,4806258.002033581
1,-4701202.2513025375,-2689126.280280728,-1043804.9173582324,-5117439.804073949,-11317460.674335286,-5471558.559646237,-7572940.133623953,-9107013.131321749,-9713715.68783726,399067.60152992007,7216841.931376416,56750383.77025767,-7587079.137918864,-44952.72546520226
1,-7216559.492249069,-3480584.4190557986,-2519043.9652175857,-3649438.054941043,-9148097.063098399,-3924578.9155680262,-9680319.198700143,-10176770.712411199,-8741794.458718188,268694.5120935356,11917308.916709913,57621279.4394694,-8615713.14770894,-2654383.4406044562
1,-7819774.234961482,-4538992.432833812,-3024147.3762685806,-1852306.6420560605,-8361532.951727431,-2853944.1673861085,-12327275.746376337,-11827816.150469422,-8260144.384916819,-1076743.2793881665,13615556.471006181,59069154.72092373,-8960631.754232438,-1781402.071313248
1,-6205486.099031134,-5438056.460952128,-2078175.7713181213,-456015.7259845293,-9251895.348842116,-2813156.7678595856,-14536921.825300746,-13461437.580913106,-8222522.038288199,-3023927.2945473576,11772444.841739738,60572728.29735463,-8601191.791760117,1743613.5657027767
1,-3109133.4474048754,-5854894.951579119,209092.04055743877,48384.67529487069,-11177218.385749778,-3746785.8715368733,-15438259.225283992,-14418828.234574117,-8474779.70492812,-4736513.046476841,7481531.174384337,61526538.15159014,-7839875.251207585,5530742.076914507
1,18208.377863178426,-5743146.809302475,3087668.1222132063,-514044.7460160471,-12893621.57731678,-5028129.1628198465,-14687258.122101404,-14273709.196993355,-8826967.523551015,-5494004.135129861,2956537.6367877163,61499162.24244133,-7090375.681876428,6989680.575801789
1,1673976.368612211,-5341778.278733695,5424996.253571128,-2023923.7382898163,-13210948.477538817,-5788049.839236937,-12646539.06817419,-13027549.63725372,-9096839.093239436,-4989197.744082446,444233.49690696865,60402467.88999775,-6610330.570317203,4789482.437778214
1,986854.5088025223,-5024331.1547907125,6163847.124011173,-4127787.154848292,-11618290.97647801,-5376722.756869347,-10230590.31737628,-11117745.482126975,-9137749.29657371,-3452013.2053453247,1135350.0766139347,58493409.369994015,-6329447.597256195,-364783.1377567991
1,-1900155.8803112993,-5089845.568805985,4775474.532342714,-6310204.131023718,-8548665.707750464,-3732621.108538497,-8486268.583892846,-9232190.009092903,-8873093.664282838,-1538825.428161725,4643712.811902532,56212479.184140824,-5878676.778759891,-6041119.66776591
1,-5909807.070509668,-5622236.483601792,1504517.4326834867,-7993525.872267405,-5152998.5848498745,-1473632.5987836008,-8110588.576139608,-8013571.0623842655,-8337442.930856067,-32058.038637014473,9305836.345216125,53949639.3845632,-4817829.853836443,-9296302.090597063
1,-9514523.709689656,-6486604.950850878,-2701859.968612704,-8686237.834714983,-2719536.364880408,344641.9469717135,-9142399.015021803,-7791471.9716798905,-7695036.798673175,513635.1035213689,13103311.35932504,51870793.259153955,-2942223.757731279,-8152487.2971173
1,-11386360.18366707,-7433633.0850739945,-6547717.595978367,-8159358.378314749,-2056883.1589208427,699095.5322128952,-10979858.710267734,-8469986.69203598,-7199856.861140531,12211.259553180858,14685579.46425387,49906153.52241131,-489778.3060918508,-2579606.8069401463
1,-10921163.065497145,-8217271.623363043,-8873554.637251426,-6575619.262842726,-3159569.298684865,-919907.4279730152,-12711017.028447727,-9622914.398884194,-7090436.745482868,-1140709.189054137,13949514.54424841,47907610.58219138,1890453.781481475,5484583.769559884
1,-8426795.896002294,-8642237.16426351,-9074162.429954581,-4480459.085367893,-5302795.109739503,-4246528.713780129,-13584242.4077735,-10742353.89582306,-7459877.975028368,-2286203.356505328,11911633.18608036,45876205.68575333,3421153.644391449,13036663.518013017
1,-4928920.165708963,-8534640.12950731,-7287483.211564305,-2616682.642635412,-7473531.972126299,-8327351.047034053,-13373685.22504107,-11504835.043419758,-8172497.760116749,-2840210.0184030486,10013954.890020307,44106596.712954484,3595950.7592634703,17343334.8533187
1,-1710710.49233118,-7709588.955304709,-4292567.332996545,-1624188.5498916644,-8876281.334588537,-11924817.839905834,-12451857.640859008,-11908862.27110881,-8886714.616723588,-2580803.0806780537,9299815.487371054,43131299.60013759,2475922.1175407097,17059354.90933858
1,203680.08349136764,-6025948.1953978585,-1173030.6576958217,-1768113.8390442852,-9242062.069428293,-14049598.480525872,-11538463.107881557,-12209492.748864805,-9191202.867835777,-1742948.731554253,9924113.953987239,43460431.00133924,701226.4978337972,12651409.161576875
1,415263.4256448282,-3547528.354501244,1108103.9043793958,-2840923.719742757,-8810248.199008288,-14371673.040980494,-11269311.934294173,-12693323.087250955,-8797663.97179527,-881738.4848274231,11229081.349592462,45241601.92226486,-815744.073759262,6034104.264278316
1,-758284.6346157156,-716322.1555181592,2049347.994018362,-4294393.941690522,-8050978.93917375,-13318084.54326186,-11826885.890203224,-13434584.011845164,-7696552.907998329,-586276.1730022219,12274997.217501085,48033627.98418092,-1366685.4944905168,-308924.5039009064
1,-2473234.288603575,1625735.4482811133,1738481.0120899258,-5527309.02852088,-7332021.577177595,-11817949.270147758,-12838877.76409055,-14190080.849999238,-6194391.711825755,-1199959.862472334,12468152.087578274,50850319.880596034,-833278.6190111943,-4275585.456696476
1,-3736586.102686472,2484359.095515499,732708.7413643042,-6165742.561005925,-6735087.031972166,-10827280.78363844,-13599285.35035106,-14511766.735240482,-4807320.836533702,-2689031.1170446067,11908207.53108064,52498816.31551789,243947.3223813304,-4795938.487386806
1,-3815618.531420547,1190202.0869096979,-238297.61921324942,-6182810.785332697,-6105743.910447135,-10871176.480696952,-13482460.959168069,-14022962.300012745,-4054975.1060989853,-4710402.69696199,11275279.15947997,52077735.85908806,971195.476263099,-2029964.1923884503
1,-2526544.2845849004,-2115890.265002121,-605894.2097471638,-5808878.211377021,-5263725.601248351,-11825765.846765487,-12309794.29780759,-12695817.77994141,-4244744.099916445,-6816670.533047641,11360637.688380087,49400501.56598581,624415.4984868239,2828170.376585404
1,-299036.837636144,-6293651.649301451,-186355.26365530698,-5315074.836114823,-4206831.043320778,-13035802.360961268,-10456874.860293893,-10951747.374542281,-5337731.601578868,-8667023.549874593,12544448.798188327,45126822.930516556,-902713.5544952411,7981571.203069776
1,2003741.0372856108,-9515464.438913962,791089.0374894937,-4826674.49324213,-3163676.574371279,-13692364.17068528,-8640732.917575633,-9499191.586696126,-6949318.711347055,-10125575.091511171,14533783.46235854,40517111.9261757,-2989966.2759070066,11557238.796940295
1,3439556.49395857,-10029986.780796839,1842578.4430251026,-4289901.78257349,-2463768.570615694,-13267094.97601064,-7513720.601863127,-8975269.035337968,-8482240.972394321,-11211183.860719593,16505486.445211794,36906149.2840711,-4600775.733996017,12140171.648041109
1,3376372.594481442,-7047973.432161822,2479736.865206729,-3599776.1332712253,-2318669.5582633605,-11778667.324807815,-7302921.085242245,-9581618.730182905,-9341972.205176318,-11960514.23908016,17561085.85627045,35132133.83090834,-4851760.38033599,9234543.94165486
1,1755506.3586311021,-1286690.1699526159,2423346.734285046,-2778756.6092057405,-2665087.975300899,-9761753.135824794,-7705225.714791897,-10923695.12382008,-9156255.842903072,-12316311.29930145,17231869.778434344,35184536.039050624,-3525199.8975545308,3523716.858253968
1,-889029.0068123217,5174170.430200856,1684394.7833410518,-2058567.0696857017,-3177456.3331260895,-7967845.783221485,-8095271.013049303,-12159580.121516537,-7917519.4379608715,-12125304.660491738,15757815.916552655,36234614.012508616,-1229604.9954085238,-3230816.7213306054
1,-3672575.473645802,9738854.07771417,494006.09290353564,-1786939.167340328,-3446712.0579857472,-6966463.3548204135,-7917378.149542005,-12394501.56310423,-5989658.087087678,-11246402.05942436,13998051.326935705,37034481.05402517,893067.8866361184,-8737830.525264133
1,-5761622.275070373,10476398.1502988,-856521.8225949693,-2209479.7949859877,-3216808.1186883487,-6860775.958871182,-7024940.18715585,-11118283.201867767,-3966597.6811106657,-9688191.995810496,13028319.078600805,36500224.52992412,1758292.1909470127,-11060012.913615096
1,-6751242.176999306,7053064.049027214,-2165621.9431329807,-3275308.443974176,-2536428.4894572576,-7261403.855580221,-5765886.052638335,-8456329.401940292,-2428850.5709249,-7670648.694682202,13634444.472595861,34212199.73522005,901987.9628418622,-9489976.590355324
1,-6834754.755559481,922019.9049399841,-3381440.8908561785,-4612666.293710746,-1737604.1468234619,-7518350.981227569,-4768736.351833805,-5106351.715275757,-1695768.985956357,-5555375.265884391,15947946.303638937,30607533.001014754,-1294017.245958179,-4972432.57650775
1,-6675300.736945784,-5358617.284783081,-4554686.842025884,-5713528.020183498,-1257093.4633645515,-7074780.395285594,-4564485.404565953,-2003717.0257221381,-1688966.3913492681,-3678614.9952352215,19385694.77752317,26783134.542978797,-3830076.823468289,231038.06242730567
1,-7036390.240791582,-9353022.62597723,-5732989.62131668,-6223309.317491857,-1404899.0058145884,-5749902.744824965,-5274367.830965905,100373.91582424307,-1985785.1084051114,-2190976.418776259,22903909.636438645,24003942.603240456,-5629830.6241434375,3573247.3830042817
1,-8358309.153056267,-9898000.10283392,-6876142.4403604865,-6150958.6185685815,-2206460.0093471226,-3806831.01331244,-6545622.983489936,930633.5619326987,-2053679.4252633653,-1008695.3787117759,25435910.12594875,23140610.067631505,-6084572.079380834,3482117.4488117653
1,-10507772.918325184,-7588141.738084395,-7851671.166955141,-5855948.026856936,-3394140.6723948494,-1783455.1630789016,-7759237.441003875,720649.8241365264,-1554207.1276938457,90143.1081681584,26314944.040471435,24287339.888551425,-5304646.194728801,186143.58779437878
1,-12847575.017317085,-4360039.554689006,-8514576.380210036,-5810063.949910326,-4536771.468062882,-191873.93844703992,-8366809.39158068,10020.949954016689,-548393.4707204006,1288331.66506614,25508530.85456512,26725131.64099811,-3963327.766352707,-4392584.173293219
1,-14603662.654764349,-2419041.2276870506,-8818964.114059564,-6281828.797331426,-5227498.2573330635,743728.7386018157,-8143940.506018546,-649090.2636655384,530227.4992811859,2592054.7475847173,23585864.14920152,29238464.93609382,-2855604.0462588943,-7690710.2036446305
1,-15335953.225813704,-3093454.936054874,-8886314.008958621,-7149128.707293554,-5236153.196546797,1171591.1811542546,-7216991.079172766,-906786.0874832249,1145748.0483400067,3829483.0019511166,21456120.43922573,30635175.03697282,-2445733.6219509146,-7967602.844369466
1,-15243358.22348645,-6218611.384386459,-8977962.188463438,-7969001.686298177,-4570197.31024409,1484464.8297558061,-5879407.662357534,-661057.7885570378,1034221.6315911699,4788964.485901034,20003272.086117186,30230850.414454296,-2659921.485045262,-5362255.718981042
1,-15105102.033510212,-10343972.733170351,-9373795.494469285,-8268458.577222262,-3444257.8128279103,2061714.6996051301,-4354609.608232891,34906.19857333922,456350.8479142738,5399668.592531869,19770589.140462782,28081003.99795212,-3015598.0614816183,-1898439.1561249949
1,-15852841.482701292,-13599814.939300835,-10214163.735986952,-7872635.631041772,-2195122.9893475273,3030011.3578716577,-2688829.2675874354,1090864.3769406702,144130.92750127648,5818100.765745783,20810798.1859248,24867568.700521406,-2974721.344775644,-363344.9237641397
1,-17983443.085826434,-14713364.509964092,-11387756.52331487,-7054258.652119788,-1181462.7368083047,4174287.2870958676,-851419.0074881619,2418458.2282554572,921389.1985915495,6338299.407505338,22737429.09590517,21513553.807491966,-2288985.3582859836,-2642727.151037727
1,-21139738.361492924,-13616254.905997038,-12531197.391047629,-6396052.766864508,-688049.119154156,5044614.52172396,1044353.9929731902,3871344.4301193855,3180755.2250417494,7163345.321877083,24927300.01365251,18729514.980311196,-1133420.8414784267,-8456515.099664386
1,-24128773.85194692,-11348966.64189175,-13154997.054337176,-6439194.742214246,-838738.1220181924,5198487.346936456,2593280.9273130447,5162571.783215521,6518458.039672235,8184883.874336208,26770934.809094623,16722023.466644447,28594.647460616503,-15268564.48226487
1,-25428943.3551048,-9378066.980593752,-12850300.503681244,-7331242.073641211,-1527906.7870846505,4448355.525219905,3183582.266959549,5869146.524452239,9777241.15192896,8938370.235959707,27866621.71184872,15202726.443426061,739872.187307402,-19509456.346996877
1,-23966562.35730345,-8757269.572564127,-11489473.054109428,-8696375.563833382,-2400169.148049465,2985837.4806489805,2317495.404730115,5578132.763696648,11536143.709609414,8808726.55211456,28098233.14116336,13673127.128353804,810666.7680173679,-18498513.252474386
1,-19766094.10647832,-9611183.90935862,-9328677.884655923,-9821202.184851581,-2917719.97952413,1322022.5043685196,-13647.374660820084,4119889.876413845,10824576.69688184,7402252.177248903,27599346.379428446,11810092.698825564,395014.8910858454,-12014669.784723563
1,-14103732.073144108,-11194077.709059084,-6954340.249706365,-10058708.264740482,-2530484.5141548296,77911.3228064054,-3159005.9596761027,1748251.0736506684,7680521.081805371,4873468.718333773,26653491.645940505,9721259.307445854,-141140.67639462237,-2613413.703106987
1,-9026364.333855558,-12426213.379561018,-5076638.3182152985,-9216767.869311593,-908378.9944778956,-270348.0520510803,-6008167.958472174,-870609.0872680518,3224353.722420974,1987697.5537683857,25591003.018993724,7911777.711390251,-455536.97734269255,5544192.963982022
1,-6428176.450690094,-12548167.286876498,-4241283.192156139,-7698934.0926519,1860742.8244485795,426302.56285141304,-7505376.816201088,-2900039.9582453803,-831261.2394278451,-168327.50346296772,24718259.051276766,6969756.04267582,-415003.0806439681,8761509.139103295
1,-7132037.006386221,-11503586.164827578,-4578888.38939606,-6304807.013407706,5217534.498802902,1952985.5044664582,-7207364.981102282,-3705092.861882884,-3001505.0554348542,-711368.9306857019,24277734.215520423,7148141.3576064985,-126399.22339326593,5674654.05012027
1,-10455397.569004232,-9861702.480704278,-5713180.004924592,-5793546.227090943,8281923.767377002,3838686.49089932,-5550441.369298384,-3161742.1916617346,-2748876.2488536024,551635.5145870527,24416039.924130324,8097630.739882084,185234.40752005324,-2086264.7528580767
1,-14515633.253110923,-8384836.991781345,-6893759.796207561,-6452602.209916287,10171242.406252919,5545598.963376041,-3636649.8666700856,-1727784.7624907952,-712772.5686975087,2957890.19859376,25146434.326459806,8937419.62041067,358678.56349448534,-10793224.629713172
1,-17153325.49314592,-7548995.623260642,-7321320.344285762,-7914852.333268255,10354990.920059558,6653912.843538524,-2626575.489787096,-224657.66256985615,1675798.058689653,5268839.76112127,26321196.296119966,8667037.263247862,422815.2445444545,-16574863.44100375
1,-17020018.936792616,-7321386.762074796,-6534048.961511115,-9331401.632203693,8880381.60852362,6975205.968447477,-3072036.5029448434,561137.5723039518,2980071.763946206,6276756.455824064,27649531.129751213,6720634.1845312985,599790.7466020377,-17364616.63440281
1,-14271083.560852187,-7306130.049800875,-4673535.112152344,-9812040.358331602,6354127.404527593,6570197.845540503,-4579412.731553117,248674.8893186235,2509755.879692414,5425530.433257565,28784667.09532213,3359669.6715765265,1197022.3528320682,-13807443.759377299
1,-10491399.283344785,-7122499.8917911295,-2481545.841071611,-8899511.15885026,3683358.4215967744,5687225.873980766,-6016823.310769493,-984721.5766547557,631453.1674396315,3106522.292262525,29460361.98890174,-340539.64694212703,2456876.765339376,-8688757.800096659
1,-7873283.835635815,-6737697.037305074,-993665.0158251191,-6825513.217160717,1700445.5920208567,4659654.018004177,-6162701.084746625,-2535344.19601004,-1515192.4929350438,454305.4842299233,29610390.90659324,-2950307.153627242,4438173.63844621,-5269265.606048733
1,-8060235.871672296,-6522359.735560814,-1046223.7582480845,-4411762.37889165,853978.3488573023,3801080.3628889667,-4426210.628467264,-3701162.439857845,-2712180.6858982155,-1262619.5501933836,29392724.69149753,-3385177.9474073676,6968107.208273266,-5487957.615320144
1,-11255321.546214344,-6992682.532869093,-2824634.091908994,-2663408.514580034,1106893.1047523152,3325013.7027613195,-1215892.6930430462,-4020607.1184079004,-2363171.6032884633,-1334258.3208391452,29083002.541320086,-1488602.4080207802,9661961.092257533,-9018291.61191945
1,-16064006.64907866,-8416176.208740411,-5687479.669152064,-2258486.0931533636,2065947.9090047416,3301841.4417047477,2268118.355320253,-3449326.3634292046,-808897.857862285,-9454.829241637044,28882277.27712702,1823422.7312663395,11990278.0647926,-13638058.10855808
1,-20160673.126221154,-10550808.371041795,-8383582.2016451,-3189934.329206365,3242581.25444269,3656878.0866930285,4704178.867115956,-2309701.403586645,896829.0121608593,1617416.0443662882,28752482.140550673,4961336.081967874,13381121.685189862,-16618123.740786174
1,-21437098.90401677,-12702765.967871621,-9588103.581062362,-4744345.07482242,4285902.169068059,4207725.89371507,5390377.892959108,-1079578.281579819,1595074.4177188051,2177619.153513335,28398181.65994717,6424404.609835198,13357010.119244052,-16284404.10664781
1,-19040785.601076547,-14083779.894136202,-8514967.561198993,-5840665.153241925,5066212.677694729,4731782.068012672,4619363.54811181,-162447.86227247544,653752.6186361086,753378.9560738221,27438270.78162804,5544431.910280518,11698033.85731664,-12862580.345828196
1,-13775042.07015638,-14256329.772762457,-5309163.245690014,-5577604.332038693,5594484.1754566915,5043791.684553013,3465156.5787557634,237250.8322618988,-1725050.8977788137,-2628585.5852215793,25692296.794552635,2824828.1782818725,8590882.151880253,-8176914.492094186
1,-7674242.409729993,-13395075.449085478,-1019843.7259660667,-3730804.2315934394,5870041.088079692,5054662.668369523,3111124.052472454,98831.62578677398,-4664547.08031414,-6993415.413718467,23414924.554530032,-307988.71707782254,4691077.397582624,-4454744.359335694
1,-2999668.38516461,-12201468.425217489,2841122.1839988567,-951237.8498856555,5787713.768885568,4785558.454546478,4122580.7289717356,-511000.13191862183,-7111161.121154802,-10896624.438911198,21313169.50004799,-2218842.83706797,1027110.3828830208,-2987251.830013304
1,-1190437.3333653854,-11516988.648971384,4945102.308760082,1455704.6639802856,5183745.495844236,4329778.979257441,6099306.639728787,-1518421.204554211,-8366926.976814885,-13121562.458228003,20287540.34274529,-1877434.7884638228,-1271402.2748667563,-3438004.7450516736
1,-2299525.29830912,-11860305.112756975,4688724.054459087,2098883.367486859,3992700.467136167,3782585.755672216,7913832.694299815,-2844628.8367090193,-8363805.5284806555,-13227806.345230924,20997351.62441842,645988.4836861556,-1351391.8094766084,-4172603.516195413
1,-5160473.2056873925,-13156433.027784182,2383853.6587439403,174789.89234924462,2397885.8063884843,3180225.0187160186,8390090.789182926,-4343607.372594048,-7562875.988025857,-11680151.69646002,23470234.120171417,4249796.979443247,1025075.9163191385,-3368410.8907629126
1,-8132077.099395706,-14808776.681948513,-968304.6686789866,-4067343.2966367155,847702.3638444296,2488182.4800406066,7015694.589859139,-5748146.021446495,-6585510.915657602,-9524649.97527532,26979475.901629366,7382100.440110464,5338026.932929605,-216374.0493742861
1,-9977687.107169073,-16061771.458813582,-4175906.0637260107,-9308903.922537489,-109237.82533720353,1651203.479822795,4265231.777612697,-6696231.636762181,-5823461.94528652,-7817342.010857021,30287293.117705327,8815005.323696643,10449682.147719404,4502126.123932201
1,-10404698.772477802,-16435568.062260117,-6365432.4300480755,-13640318.847528625,-95972.67433110447,677701.7282375006,1348008.1983695033,-6851479.000010205,-5258070.88952347,-7123820.273822269,32160440.6462166,8204811.907880726,14991346.015497562,8793052.453799777
1,-10019235.033066312,-15981444.315142151,-7263710.01330237,-15349565.78072451,871499.6068131169,-296151.72433167376,-463063.8492047432,-6057656.483060245,-4570303.758147656,-7341366.106982959,31912316.790584568,6164267.210250361,17845716.6626526,10548696.79366197
1,-9796360.823206153,-15221581.109982263,-7160301.902825077,-13676430.955550816,2358377.996000831,-1012455.2429959037,-521370.83796948724,-4431823.42452049,-3441526.729731945,-7898027.283012715,29700950.59594123,3847771.7878550976,18526318.009653307,8726459.92034437
1,-10425626.302533142,-14826032.931444887,-6631665.557359391,-9184614.428609908,3718541.6949749184,-1180070.2770320277,885005.3298710134,-2329609.0707077226,-1838549.5808788973,-8171715.755874189,26433454.309814584,2309274.4665154354,17301861.02185005,3939747.0814141664
1,-11924215.25439927,-15228420.091503518,-6213517.929784487,-3567411.4560917285,4433178.030177558,-608348.7323472864,2770075.5727674533,-192049.12697362434,-100521.66766644566,-7866380.049011424,23330491.9443692,1992739.8335226066,15027802.577050209,-1853423.6501092494
1,-13713509.23140243,-16403766.254261406,-6194676.8035920495,1038669.7423366334,4390905.072659978,683483.1629284289,4070137.738572203,1643114.3324562733,1225006.4570112724,-7134908.3538239505,21377341.39497505,2610021.1393366246,12771892.068738218,-6363710.465934846
1,-15060334.871708812,-17920519.352353424,-6599313.218021921,2928062.9513979075,3942783.2764357897,2444808.001616725,4267158.386509443,3059774.9685864365,1696444.995847456,-6408258.1820021635,20936147.8487587,3423158.9037551368,11396972.892282479,-8106886.601103758
1,-15571699.57576283,-19209003.306925654,-7302023.67016783,1496743.455146647,3691752.133402305,4279622.777061514,3648747.8016740647,4148642.1586446795,1254172.9469230848,-6069723.521403629,21693886.597715545,3721704.47011126,11264521.788951075,-7047344.055370229
1,-15422911.464603737,-19867339.762604322,-8157675.746437305,-2581504.2100673798,4132774.302913399,5802083.820504817,3067436.2529131738,5078503.315072628,291483.9124808791,-6195468.065066783,22933714.41728453,3199851.709473322,12157199.464099212,-4438147.94596243
1,-15187779.056240665,-19824284.91667022,-9054034.973974975,-7726583.727172748,5351924.928513281,6786201.686714264,3364562.568717508,5941621.100731908,-530547.9694289524,-6524393.727017723,23951513.27470434,2032679.5429505631,13425332.840241922,-2006211.5720684878
1,-15401523.121950826,-19288536.652293812,-9878033.22253505,-12171397.888031777,6961467.520205265,7239270.223987841,4819275.543928822,6673699.7855755305,-631589.6295737436,-6664552.090288723,24384294.040435202,656117.1322754358,14281456.53426742,-979948.1760015751
1,-16157422.19223194,-18557547.866749432,-10461342.621736737,-14685316.067330828,8310395.148260845,7371592.268915242,6958838.3476448795,7098379.5596638955,162887.23950312045,-6389085.505423469,24293874.230296925,-561718.7800277625,14124343.376311649,-1507877.1370963834
1,-17013195.927671283,-17839870.612641957,-10585405.258801395,-14987783.881899882,8848063.01150442,7488796.0928141335,8843167.871905543,7066096.175318152,1501867.9130095,-5817818.672945227,24002896.756664366,-1522399.7585295185,12774777.211160546,-2759190.919887403
1,-17281622.201156512,-17212987.633690298,-10074301.209930286,-13712235.48895008,8429115.060121914,7865904.434263315,9651333.653459448,6597455.0931692505,2674027.102713014,-5355430.828130407,23817104.185156107,-2347371.9258769914,10541938.556792272,-3592928.79794075
1,-16529239.457386794,-16720890.032672226,-8927018.104900973,-11999477.066212844,7383889.165223431,8658028.296401411,9219054.299784085,5937089.25109358,2988695.5781810586,-5416124.67032911,23812548.843276463,-3140878.1247483166,8099438.624606768,-3365116.602316535
1,-14963286.375366416,-16498973.073425183,-7396333.493489766,-10951553.49773797,6317837.583563592,9869082.822622156,8204357.746683373,5475358.380109112,2182151.383205711,-6108108.852322491,23804173.955810543,-3768886.0693877446,6218922.705165248,-2384743.215430161
1,-13440487.010979364,-16785141.542722903,-5943007.520971951,-11198212.005472455,5762432.6982805785,11363444.863937233,7771663.634714263,5570198.911891303,628998.0769158935,-7088180.096734559,23491304.930321172,-3850540.4949988364,5466543.360813284,-1749017.8049936565
1,-13053041.015743133,-17761929.782945406,-5068133.940461488,-12731303.479052383,5883474.977757291,12892417.403321983,8957716.791954454,6357327.513108071,-777681.7278127178,-7700686.404328711,22672882.9159197,-3007647.604227039,5989307.645314522,-2652703.2928051366
1,-14506720.872805402,-19319222.132049307,-5103892.898898634,-15018241.954361929,6412567.1604458345,14124744.861146092,12062849.194439767,7645467.977738385,-1049269.2514331925,-7341057.186378958,21397660.203133453,-1221261.6152265917,7486883.8871030025,-5570507.372852527
1,-17647913.80401633,-20926217.569671802,-6072597.161623073,-17292487.59862306,6831721.167807312,14698959.050377928,16401551.232537596,8953536.434063926,367012.9548045997,-5837046.916451436,19967737.940053727,963012.3144371454,9383694.863841249,-9790962.907537775
1,-21432192.88691528,-21770895.18951551,-7687399.558499548,-18878767.242650826,6694147.522762388,14323482.090386266,20557180.923435718,9681864.115717411,3223075.139742409,-3613629.7702233708,18805463.078975167,2575049.723230864,11117872.1668576,-13595250.11330329
1,-24387866.465094138,-21164519.37590196,-9489809.753752617,-19435990.55448591,5893038.668095012,12920802.991298974,23022581.685492013,9351096.671770329,6486910.670125443,-1522744.3408193784,18265458.198182307,2689931.777588171,12398005.117156534,-15026895.289654795
1,-25347904.193545576,-19011021.779950686,-11047941.501446243,-19055321.887576707,4731326.542078018,10759531.116810504,22911388.314430997,7814124.19180618,8774656.34929478,-412907.6309452474,18488392.361094058,982407.0665617244,13288064.01886647,-12874792.967478268
1,-24062232.239582725,-16041248.533141661,-12115463.352150964,-18201621.32649676,3767267.085594329,8483351.305476332,20392238.06136079,5355789.216912844,9010487.807804866,-672405.5192643154,19354090.463054236,-1977065.0043432629,14071188.098313248,-7364376.06353695
1,-21353629.016176548,-13598275.438569395,-12682713.135816004,-17523149.97920008,3536512.0726118777,6966861.728390891,16639019.493946563,2634999.3307509427,6985836.374668665,-2007250.629329401,20532827.58903563,-4914522.3785926895,14971231.025145428,-187747.03686589465
1,-18719579.02920891,-13006990.416375622,-12913638.011436932,-17585239.74345814,4307719.526036026,7009489.950504138,13326858.169395508,479356.4322306383,3514272.0496911355,-3590059.7102427566,21593167.3227726,-6486066.590102682,15903819.833649142,6166890.216545856
1,-17579514.572041474,-14832299.890840372,-13017104.72750129,-18614787.833699696,5989848.266690251,8980727.06986109,11916190.688291332,-403125.1710922857,72171.83475000334,-4506268.265491302,22119616.255657267,-6024155.501632435,16425081.954070212,9473619.892978713
1,-18558953.136749335,-18453828.12975252,-13121976.021799035,-20361319.598342948,8209332.569728131,12589298.656815253,13055660.91725313,306410.70817714266,-1915009.588276578,-4250140.505693491,21813455.915897224,-3959669.4149133647,15937802.402354814,8708935.225301592
1,-21183825.063077692,-22260618.197557498,-13210044.803856177,-22159960.17524041,10482169.581401804,16917701.609695915,16364040.612375142,2393130.953658768,-1780248.8619602679,-2988902.591021463,20570798.284516156,-1634446.1384333202,14057705.307351105,4432499.482147945
1,-24140185.675419185,-24440299.33685516,-13127028.269850377,-23206175.398478482,12374303.604586892,20743836.006314095,20664553.724974755,5159093.0588929895,58689.902605665586,-1443330.55545738,18534890.01441669,-561632.5024755922,10929440.29997881,-1546154.8732337034
1,-25955534.95796874,-23979113.25522825,-12660121.09540105,-22942701.92341527,13581645.175200585,23021177.620690368,24535875.53377895,7667282.295796935,2336420.1586605525,-454045.70223349717,16106257.296501102,-1530424.819097356,7287730.003953729,-7014446.331238038
1,-25739154.63677841,-21315979.507443547,-11651100.827225734,-21374131.186112225,13931221.466934526,23292877.990809944,26910636.713772792,9094153.73506218,3619820.4043906378,-485813.5572151627,13883067.729341155,-4079245.876093142,4192133.652686092,-10278486.102129098
1,-23595857.379898455,-18230502.30645882,-10104699.682867937,-19127492.071708124,13355081.968314901,21835560.73890436,27451482.692096185,9047713.859937223,3062559.0490054055,-1359434.541601001,12515498.842326073,-6682502.537033894,2552981.3995775008,-10720390.030593418
1,-20509513.25845775,-16943024.694485303,-8248714.42349758,-17189625.666950565,11887786.956911182,19463573.046623405,26559298.055957705,7709339.650536305,819430.889367022,-2369159.090209001,12496227.138400756,-7595307.35663791,2698747.414445419,-8779058.662003683
1,-17778702.036663767,-18855813.043912187,-6508057.799358698,-16427145.977102868,9695203.322086548,17102682.184453726,25052474.918480743,5728437.254696153,-2105281.679215855,-2718391.865535051,13955542.358583499,-5902388.2908883635,4225899.093988883,-5464458.4396127695
1,-16321110.134426782,-23610279.067400098,-5378329.18477717,-17133742.31090154,7095556.846718778,15361937.77701454,23708480.824563876,3913759.139481287,-4478938.975029389,-2018975.3704657108,16552549.916142339,-2160702.8607762093,6218796.530350799,-1749003.1304947378
1,-16220910.615664657,-29017392.38346508,-5227991.302292037,-18859959.159702346,4522460.346467662,14323645.89446409,22906864.250556383,2867568.547540792,-5564820.122402526,-560253.3824668218,19530915.011260618,1778941.118191464,7716687.3441633815,1804244.4533490876
1,-16748442.139706118,-31977877.896501437,-6106892.170366587,-20639143.11525317,2414808.6273161885,13640093.927786093,22538395.89084858,2740879.64917876,-5525568.045909191,813050.7025592361,21942296.182752438,3729751.7172215665,8163300.559372717,5015346.110700923
1,-16818977.11237421,-29973946.176001355,-7662260.721145393,-21500702.589632835,1074662.388140168,12850199.227352286,22192683.404900994,3225993.114829841,-5273393.393279072,1149212.652984216,22963217.551326886,2401909.559555084,7589653.319337928,7781748.7740054475
1,-15622925.704434613,-22379772.513940345,-9234129.644492771,-20987444.962219365,568941.3954273037,11712287.810650392,21488541.608660284,3776129.1773539516,-5864524.204535716,-86621.07754238747,22181784.85210866,-1789475.8634418382,6445610.384692899,9791598.741713546
1,-13078840.361220887,-10898822.907702943,-10119978.165630229,-19378156.942245923,735455.2161890466,10356444.566299966,20345034.44310394,3920582.868531544,-7808306.878444158,-2703205.0029834877,19736905.00807011,-6838438.282818856,5210479.488348339,10520846.950503537
1,-9871428.99190463,1126733.488231692,-9900036.78374654,-17480133.58533613,1294986.9870881673,9182003.863978708,19039129.809635703,3497158.9571386403,-10713083.097543553,-5853599.979289356,16253979.132409945,-10176449.344264695,4044647.7383979405,9556091.805204093
1,-7072486.529213468,10205149.958820632,-8658853.348110717,-16109439.428784842,2006255.1373259597,8584877.409517245,18028429.756934036,2679773.2901380253,-13488162.913262388,-8437434.653707324,12608361.115810733,-10080072.38591658,2710303.551405395,7023299.039043291
1,-5569589.046733584,14237697.056271097,-6970285.514087313,-15568571.69858217,2772891.489261538,8697080.841235451,17657117.39321825,1805679.4257856025,-14984347.059131794,-9610642.818033436,9618739.581471965,-6679346.232096442,810258.0712609128,3783318.5101599274
1,-5620727.3395163305,13348551.894079672,-5629036.901400392,-15441382.785089055,3641000.2809265624,9299883.09802166,17928997.48228417,1127765.3064304555,-14687812.880482329,-9135629.902280865,7793975.813495508,-1980898.633953864,-1817812.4527039842,1173127.020188792
1,-6767026.541999551,9618726.969690394,-5253846.394383243,-14840795.745993087,4694928.151516269,9952507.207051504,18486599.354596946,658212.8128075144,-13046545.72334897,-7411707.974675807,7222599.608585689,1145824.9405453482,-4824138.978226652,364662.3138336454
1,-8127048.679510894,5915158.010016176,-5971371.899282766,-12972914.303352483,5923553.935232687,10241939.378392017,18809073.228905287,204735.28478466053,-11227392.340852775,-5209787.283497351,7625870.140177027,490213.7242628522,-7394588.58270838,1692559.3874339373
1,-8887208.74732851,4458264.366194767,-7357624.649221656,-9684730.600565571,7148063.5564182205,9993322.805283764,18510272.37389431,-429362.20299828553,-10443344.588220714,-3285271.3538405285,8527969.933402603,-4295429.347720631,-8629223.38586111,4374301.840563335
1,-8708803.136385135,5863575.771366456,-8674628.516610287,-5661947.212652366,8063109.458455614,9320505.12681385,17559063.07143193,-1222095.496177709,-11248674.212842386,-2078618.2625430082,9459130.917430941,-11472799.908462986,-8042692.653153781,6844875.053328871
1,-7837524.241566508,9093450.719168287,-9271032.998021245,-2142418.164129939,8371971.31906182,8507810.769158144,16290449.741487069,-1849293.1112851128,-13218952.059003366,-1629721.6627398804,10109623.191991601,-18104167.959903605,-5885715.309892955,7565519.765675692
1,-6879794.356699663,12246874.412252106,-8918178.08766973,-293564.2035640292,7938029.658097857,7819294.449561508,15200937.1761541,-1818624.8548880427,-15203712.852421643,-1695102.8592499967,10386344.587723916,-21569540.897150896,-3079733.927419549,5866771.75527407
1,-6395880.429648287,13685827.690790795,-7890285.088345401,-601310.2329940917,6864863.964306242,7363336.619965148,14651286.065846052,-758610.7645343893,-16001302.245794814,-1953350.0705505498,10370144.197144927,-20896548.852113314,-781262.1369291105,2343091.282856797
1,-6549500.473044987,12871956.452759348,-6750850.359312209,-2614762.136603616,5459557.763873912,7085110.341056517,14657200.888314305,1308826.3694863045,-15061033.56404191,-2169354.6559080766,10210879.502920158,-17202398.36927304,187039.42579787472,-1432671.1860245815
1,-7005016.862360885,10510397.61691926,-5985343.762589774,-5187316.387322841,4100636.515905194,6863203.375783097,14898260.068637159,3889846.374017767,-12809563.47755127,-2253641.807915097,10015264.998503244,-13046159.60203594,-280520.78725781664,-3710046.262732095
1,-2729195.79750479,-23806583.488938253,423564.5562740593,1544072.3759451944,6395842.981934564,-12367965.542931033,-10934660.582512988,-7640607.761121373,-1842871.4938929095,-2370850.284311142,29949400.209820565,-7223814.244367677,24569662.538555384,6034006.533050401
1,296406.5417432511,-24282876.18758648,3143807.638206883,-1189002.4029629412,8062377.07624417,-15388230.125734745,-10289897.10259704,-5905969.527276161,-1838218.2074930104,-3557533.490748265,29789961.40961201,-9037203.437642615,25782783.777703647,4413594.038531286
1,693249.8958949579,-24076043.84264527,3195719.5878976616,-4938814.507046848,11273051.943397963,-16880684.242248327,-9851559.15925636,-4005121.0028598118,-478582.60434019164,-4454530.180671281,28133922.451470792,-8315747.301733477,27019638.39510436,2685500.5670358236
1,-1329954.3277101398,-23209300.306705784,968952.7565480478,-8018790.152570724,15306023.79344523,-16337728.48232747,-9992373.275575437,-2771251.150515399,1656594.960000758,-4543828.882121902,24413247.287814625,-5735821.004988574,28370632.08796174,1223596.6967450227
1,-4306931.960975736,-22110494.15041738,-1914171.4103193174,-9003273.029959083,19247066.73770051,-14083315.67201471,-10701838.176673692,-2629127.374365292,3635279.370280647,-3696182.008020237,18626938.069545913,-2803559.1271294714,29534850.354196098,204758.37815175514
1,-6412772.197328152,-21371840.995976683,-3554174.0624233102,-7352844.80001821,22370332.794394985,-10975092.064393576,-11493415.61723346,-3375451.798595682,4602124.940641797,-2251237.493706995,11462034.243087035,-1181462.8149668437,30024682.552994158,-490882.6864750589
1,-6465703.424944968,-21399281.788674735,-2839734.2574670985,-3650094.267318644,24366310.547574367,-7945973.394753025,-11608941.68993184,-4312432.852384565,4159918.420822079,-863325.0301343718,4109498.3829408777,-1958372.9994044516,29529332.107915416,-1121199.7542390367
1,-4489246.965988752,-22147711.770849492,-24682.02372482731,677694.4231522612,25347349.77155414,-5638226.786355319,-10438523.941542458,-4655534.00937522,2523184.29626002,-190225.16283398258,-2158825.8615859128,-5155879.850842046,28183067.991309136,-1832440.109177548
1,-1572521.2422814032,-23101214.966695875,3484392.797324634,4016824.4130634516,25678299.388962016,-4280689.750365578,-7929472.109425771,-3982013.9947840534,382845.342404217,-579571.8534268109,-6453547.963538055,-9677200.734453883,26547405.238931164,-2533534.56571405
1,831193.3743824833,-23524966.009082187,5972275.326595481,5278609.280442153,25751219.35510171,-3797096.32505035,-4739758.598588794,-2468511.3564121253,-1435241.2363384878,-1904467.17307069,-8546968.508214952,-13734178.4967379,25307589.108070407,-2989698.7410967355
1,1732371.5088461745,-22860669.313975874,6381229.177796209,4312471.400973346,25822000.796635665,-4011358.3455579793,-2019658.4746015223,-791118.8165615317,-2341352.381627864,-3621790.3717804668,-8842392.447031902,-15590309.280259253,24877188.892115165,-3046612.344970165
1,1091378.5379730605,-21050187.45683535,4843106.315149953,1836443.9371277662,25967548.302935958,-4795897.236549011,-908977.4509236404,246102.4756237213,-2207083.150957447,-5017292.141683156,-8074456.244712985,-14311416.398447234,25171335.89033741,-2790605.379039055
1,-276904.10990216985,-18605073.452146363,2497668.494401726,-1032889.9538343633,26146497.023893345,-6084964.339298601,-1998503.264000571,140444.61414063637,-1356182.2445228107,-5516994.769149792,-6920288.032746866,-10193320.619310115,25702246.317003112,-2501735.664527164
1,-1275415.6306114576,-16376422.260106632,744202.3940473131,-3356885.2208729805,26297084.6068008,-7783832.162920307,-5029560.610625867,-1057675.0613657597,-353213.0779298602,-4922919.633084035,-5733877.703486475,-4664394.350755047,25937764.020716228,-2424855.309805918
1,-1209919.2167121451,-15143221.659171384,396520.0694358532,-4730632.212259791,26403960.867631678,-9673276.932795892,-8981475.857882768,-2795426.3235996547,287045.43811785226,-3476206.651144257,-4527330.722276082,305375.64034778683,25684104.12345396,-2539516.5631451607
1,-186420.98375294762,-15236058.71751405,1244914.1885135951,-5254954.411730806,26502812.394916687,-11399673.028408138,-12496118.760382378,-4322190.652849897,326412.5677304678,-1734015.3928697933,-3168749.7928159693,3025645.925205879,25228850.800026175,-2530454.1360688256
1,987059.9935304738,-16391777.469295245,2263629.5722022713,-5217447.110209211,26638886.96752222,-12572033.245596483,-14425123.796223545,-5064574.3148929365,-125994.46158754682,-326053.95800289366,-1640262.765444935,2762848.350667114,25132791.193835907,-2021948.956505191
1,1306104.2179590897,-17907133.763769608,2306928.744886204,-4758116.590119372,26823203.152143944,-12911549.341842767,-14245025.201843558,-4866192.745450356,-705365.3350101323,301875.23915505427,-175365.8378707196,-29349.5896300994,25795916.03109681,-935928.9797044826
1,168390.8330797244,-18999201.076770905,850679.9682432616,-3784883.128106081,27024768.347005144,-12365886.01020119,-12177765.088137878,-3981874.4810526143,-977975.9478654464,57323.85052287124,816941.9696872671,-4006562.8769218787,27089375.965716477,286667.6748012441
1,-2282388.0269186134,-19177068.96296979,-1673836.4208047395,-2206588.1362002003,27206144.026772097,-11125301.931804132,-9012523.596505355,-2864027.1650114385,-628709.2242274557,-772431.2142921711,991169.6002792007,-7580736.887086919,28324295.605712954,802002.3330565545
1,-5248539.980379796,-18437088.70316034,-4145094.563672745,-297724.116914474,27375198.88435826,-9538244.87444057,-5755635.704386906,-1889362.6268208886,424173.19209374575,-1636601.5778957081,310382.5523888724,-9586010.711626222,28620728.238997653,-196180.00854088718
1,-7729531.000121246,-17201319.26017678,-5438130.546174879,1124954.7378123493,27610481.13192666,-7978705.973762896,-3276615.307060717,-1186926.4729537806,2014669.7454080912,-1931414.2880172315,-866678.2891185479,-9656371.280610941,27471251.659742266,-2955664.856892341
1,-9057271.465833722,-16059819.826425243,-5104686.882973959,943807.6501419205,28031565.427713573,-6733553.70977216,-2071275.2262148783,-646804.7437599228,3800807.721988778,-1229920.1739407561,-1925884.3557309778,-8188362.6509885695,25138851.414686885,-6897453.17889097
1,-9210055.683905883,-15472089.938942792,-3631851.8170631654,-1644674.635109756,28721257.00621496,-5951685.796341151,-2178876.4116031034,-71398.35511374661,5386144.995146754,546311.7140077271,-2298488.7323777354,-5987325.521050501,22599979.818801012,-10807246.64266262
1,-8743596.19424047,-15583708.916166436,-2127457.0553672197,-6475217.155592591,29642371.56392378,-5652605.4707905,-3227897.994195419,648882.0144785948,6450907.630985931,3071779.712034208,-1758759.5981730167,-3837255.1736520203,21013127.489235558,-13420570.852480391
1,-8404567.152920399,-16230635.655609611,-1630375.445158145,-12161554.578378243,30605096.786419652,-5761838.74788259,-4569990.927013643,1452495.442722383,6856996.770394878,5701458.910160875,-553331.7655238634,-2222994.8838946493,21002318.035454378,-14083076.788771017
1,-8669695.424188627,-17092363.31641705,-2469664.5160193327,-16517023.03024934,31320438.493174423,-6140846.870278652,-5475210.8528387295,2159697.8771749455,6696268.770979801,7675909.958886995,710578.6018308641,-1296280.1882268498,22197577.546122473,-13099387.04995092
1,-9483644.219872957,-17882624.317034066,-4065026.1103196195,-17540823.886447072,31528681.723087125,-6602605.9213807145,-5365212.975947109,2610873.8062270298,6259995.34807671,8385992.342058701,1359991.5344999724,-1013948.2105092761,23359251.188957572,-11550900.301396295
1,-10340793.352250012,-18468525.470922455,-5293963.251057961,-14494426.122250918,31143240.478790004,-6929140.72478095,-4035692.1467763344,2785525.861363269,5927302.615113716,7607235.109504393,981172.6430130067,-1291954.8558778928,23079471.413622174,-10669452.197490038
1,-10648556.172860403,-18873217.256132036,-5209329.42456391,-8465146.36872912,30328377.295753367,-6913806.496105388,-1785169.201348125,2815191.9132011407,6003528.797916377,5612882.626112501,-386352.2418993591,-2054632.3102830017,20692314.810942948,-11116085.972004984
1,-10144631.801598823,-19195543.875613857,-3677642.144778749,-2032657.6748173628,29451635.760669354,-6433145.10700462,633410.7352322638,2878919.5450784527,6572781.405065307,3109783.4245165554,-2271805.3065433586,-3171918.921230751,16855953.225294698,-12575139.264269114
1,-9111592.65403435,-19522507.36481479,-1548585.2613750643,1877928.8186581044,28913349.415270742,-5522999.019321329,2263161.5907764887,3051987.460856858,7439173.56822822,1005204.04990485,-3983824.2793397475,-4376878.476733052,13413663.60670024,-13898081.454777164
1,-8253507.161512875,-19895631.056470063,-235313.59257288784,1410625.560311254,28927592.252206665,-4413828.614255656,2321041.379340996,3213803.9635042483,8201530.9513364285,81728.9998093102,-4896435.2146538915,-5269953.207244644,12532264.447374605,-13723918.707173489
1,-8299074.122974396,-20338667.355715312,-926913.7460017157,-3272020.5585836195,29371343.02168343,-3487884.6224902053,543943.6920763238,3086805.895781151,8442762.89773035,701988.165812367,-4678155.697551411,-5442148.823794133,15539607.05523849,-11241585.80121132
1,-9558441.438373208,-20903778.864044946,-3871932.912580939,-10025637.506455468,29801121.77704334,-3155171.582484865,-2665247.9504983537,2396386.056117002,7948223.249675303,2662740.2831736244,-3379907.046052155,-4649585.82229265,22089788.112103067,-6688556.355329751
1,-11692891.16260844,-21681933.724906705,-8141301.64883,-15758785.208779447,29658179.31186291,-3688074.8690155027,-6374336.954245211,1063302.0311253646,6837424.498800721,5264408.901767952,-1375982.0786304555,-2925303.3599912594,30143477.45578484,-1328183.1923347656
1,-13839241.534868099,-22755552.270072892,-12018501.762989813,-17946737.40833889,28579394.136027925,-5082934.575625657,-9483070.825503888,-687097.8455295986,5526116.343590249,7575743.901849341,784888.084619958,-556605.8757562281,36826238.574598595,3077361.057998991
1,-15031174.043870784,-24120558.453623835,-13822213.944715556,-15846576.730156893,26657308.886049576,-7014883.3047342785,-11135438.18789378,-2373005.449596253,4522755.198716276,8790202.054220803,2543201.429418184,2045761.9373412416,39750638.61818959,5033981.990655713
1,-14691946.02772063,-25634036.441438507,-12732902.571172835,-10794581.113679353,24496138.063865446,-8918282.014572026,-10989952.649532445,-3448864.837049203,4160661.8038729187,8529421.14877345,3455666.104846193,4484220.883696712,38125356.322691515,3959101.3274187716
1,-12932426.50446128,-27032125.376756962,-9195734.513639769,-5455712.040849648,23000033.454971626,-10172510.445851889,-9242951.632498808,-3547368.0656259237,4416119.002415574,6970300.7237813175,3272647.2924381546,6422628.897977328,33077376.448804542,419722.7592957398
1,-10496872.937591255,-28019062.435608435,-4701158.095615176,-2443980.135170899,22966537.88300529,-10325053.957762422,-6439475.2105937665,-2645386.2198676527,4926165.59356513,4747102.949469297,1977171.4882580729,7541643.21672121,27028988.88160889,-4116621.0204182817
1,-8393188.946743144,-28382471.885668464,-1071259.2490122672,-3042523.9384335126,24672327.07722406,-9263249.838061027,-3210935.094648507,-1068789.6457299967,5210049.636697129,2675684.815907373,-205909.6969676127,7496288.304337334,22471320.98676602,-7887342.525667386
1,-7413772.709268106,-28072916.816070404,372861.1661299536,-6663894.946549333,27665508.15490279,-7262936.772141244,-88699.95225148372,661680.7135487925,4975172.38423546,1421603.2933632706,-2839540.566631659,5993166.466063959,20785054.563554112,-9533284.978886113
1,-7802668.980301346,-27208142.778244533,-652760.1415217763,-11269819.429756086,30895439.482611086,-4890071.513642545,2538554.137284511,2057880.4406915174,4326338.907233973,1254385.7489434103,-5360883.6368380375,3015167.751053833,21710213.31685463,-8613633.304368641
1,-9229712.567152843,-26007908.047948718,-3393196.437018042,-14460788.550538348,33150960.213005673,-2790847.538406026,4366799.785772299,2846706.6418935186,3739799.507891504,1987117.2989583134,-7226636.143988738,-926737.303063453,23695955.672737107,-5751512.5321422415
1,-11051647.059171023,-24702377.2691663,-6536249.779766577,-14628547.426774787,33618250.322153054,-1452840.6098505221,5124509.789483139,3022862.159055865,3794320.015530046,3113535.809469645,-8083073.849488658,-4730183.402918978,24882041.271857154,-2370599.970412065
1,-12681548.856651954,-23462435.416551776,-8886211.220967455,-11594812.893290237,32293027.416883875,-1033777.8253196966,4608766.857260482,2764776.4515909995,4798987.346447193,4065457.5462006093,-7894620.407864656,-6990801.9004142415,24142918.227257702,-129725.32458085526
1,-13843522.009626487,-22374982.353002846,-9871196.371451687,-6490674.320027212,30033603.605407204,-1327544.5866024496,2803420.2790763327,2281871.1742028343,6534169.547082455,4464079.145683843,-6964412.565156622,-6609746.65193077,21631368.510042157,-266433.40369674645
1,-14581242.446861843,-21452825.17948583,-9653502.628945274,-1053943.805148799,28203468.205480795,-1878872.315877394,-10748.282268607529,1692169.5862659898,8275848.754810304,4251542.226373888,-5821171.560310527,-3447314.081515105,18570789.456029933,-3094197.928547536
1,-15055476.39816645,-20652891.505562585,-8850712.134585386,3205284.7798353494,28049428.64721369,-2194030.469812059,-3259033.7787191328,1000262.0514760878,9121998.293053472,3655419.0030098944,-5010832.428400949,1365666.0464802538,16474089.553910922,-7849171.659733118
1,-15301378.552414889,-19887710.46247731,-8084463.511353906,5530719.17542117,30097487.80590858,-1953876.7430339523,-6228003.576145614,176757.28931959154,8464863.857336525,3024168.654255055,-4883072.52805137,5734826.844706711,16268406.905225458,-12958725.158696048
1,-15135665.802653953,-19040105.16582859,-7640393.00168457,5947975.550780347,33853699.8335971,-1136857.1525415233,-8310949.130745817,-725593.7495670322,6356369.310927924,2632884.9771226454,-5470291.3784246305,7490668.117276055,17818930.45099049,-16640672.859248457
1,-14294505.08391693,-18003839.826585356,-7420874.929117077,4918984.031528797,37963850.651364684,-2985.0541148587663,-9217368.927965136,-1507001.84247209,3556236.4194649323,2564959.2845294545,-6511966.453984683,5471175.465430419,20083310.79105643,-17599974.52521859
1,-12715148.064123893,-16756097.08253627,-7173816.517399059,2931474.4715442373,40774377.75111632,1044479.9102122786,-9038162.483418,-1861999.0173182702,1215849.9967349698,2724721.5830720193,-7603263.9111483805,235959.40030140628,21756803.778309148,-15535179.815346502
1,-10757799.234812004,-15429200.058967512,-6809317.292965323,296348.79829913477,41047307.50602969,1646748.9733856828,-8146064.943170586,-1514249.6145365026,346809.1768526345,2957742.0742020826,-8384608.97092612,-6021072.991587687,22004637.50951665,-11237280.931320136
1,-9179583.197556302,-14320576.471680626,-6572112.817107764,-2775848.197766488,38505277.3879708,1635111.6989447188,-7007315.315442211,-371091.0655662681,1342498.8930943548,3193697.1990421833,-8674522.160790509,-10399652.545493163,20863074.41731516,-6238957.82496388
1,-8818446.132873517,-13793910.670482775,-6941469.107788939,-5963741.918088298,33957220.22779095,1070648.2528387231,-6019195.831544642,1392558.4858535517,3796898.9481921755,3516507.540980866,-8489331.377825359,-10646607.055051893,19113808.356479965,-2174939.7184808133
1,-10135373.843464606,-14085911.578576898,-8312895.876339667,-8719125.110760316,28947579.44561448,172361.5504182023,-5445730.554284303,3373393.958227997,6709958.671824303,4113532.197200244,-7964166.823135452,-6261600.409957903,17752388.89526834,-144410.5220344123
1,-12878389.630159892,-15109470.68123617,-10663730.275150206,-10385961.604524463,25092029.74760413,-814977.2940438937,-5437296.405631937,5085254.740254618,8967882.198825445,5132493.744368816,-7245500.34659593,1220970.8222371598,17392420.94565612,-355725.9616038002
1,-16091357.899857083,-16381554.742240973,-13426321.633866508,-10503763.944263507,23406339.59716301,-1735818.8002114722,-6057774.4098171815,6135954.014782768,9848578.400214136,6535684.120607191,-6432180.215921985,8935180.097728267,17953616.241725624,-2186580.82604228
1,-18507204.605440315,-17163710.856687825,-15674099.712107427,-9092853.92821891,23933437.99131175,-2561386.603944726,-7253518.020386891,6347794.311109215,9300313.156363033,8048263.723166617,-5597433.463491111,14020951.17912734,18786509.783985965,-4587062.954786712
1,-19141598.257127136,-16791235.690730367,-16538434.609742794,-6712427.919269446,25827451.579045355,-3338977.5088701667,-8773052.493499234,5772716.3095225105,7872485.6587092,9245090.390202228,-4859752.080534485,14916069.300075915,19119145.850704283,-6597480.528485872
1,-17773592.596607435,-15041914.074339164,-15631579.430102719,-4224764.629705083,27833345.994127244,-4094876.702732001,-10124236.589538973,4616182.008829656,6365664.965487783,9738764.9550958,-4429753.425157846,11959350.392002225,18532904.880351428,-7725495.747710915
1,-15047856.40473014,-12336721.42645215,-13240117.62276107,-2391925.79101339,28914502.652828,-4757852.966270989,-10667726.36814712,3131038.6810400244,5408696.678082527,9369081.232907062,-4571464.572448871,7039610.694287186,17182735.754234035,-8032000.54155511
1,-12137809.094463529,-9624443.722207885,-10181469.166731298,-1543476.1507021305,28719508.161967844,-5153982.139732374,-9867748.995997235,1545558.9162137443,5189674.571420499,8288624.230203244,-5474853.693253777,2531836.9271385367,15651930.085357852,-7943349.929213492
1,-10153469.178290183,-7963103.28318172,-7406567.918106893,-1509529.2427197206,27672459.003367417,-5077904.6443823185,-7597908.962919813,50769.103752135874,5462133.439815163,6895307.163455686,-7105370.272535288,116382.49457694036,14557830.872000435,-7941028.574831836
1,-9618394.56321339,-7989171.502610336,-5571223.073563987,-1842446.955046653,26668922.036400504,-4399612.663365731,-4319198.6272533685,-1178713.0232658396,5784841.291860851,5648038.964913433,-9129814.450351309,91992.45240857771,14165457.9352835,-8310677.822196251
1,-10293149.703112898,-9554412.647162057,-4805182.002770567,-2166402.0136437914,26559452.12347189,-3146647.2618994815,-980605.7718843597,-1981643.3522341023,5828088.931977409,4866025.150306081,-10989465.020596145,1479975.3845219845,14243823.534779862,-9059857.351753825
1,-11416633.868016878,-11745817.002867538,-4781038.088033527,-2418275.0633944157,27700751.346470352,-1518325.3259025349,1361633.0051418727,-2257910.101854021,5559365.598992309,4617147.71186694,-12112409.608761963,2769614.299702432,14238984.45987502,-9997087.363218047
1,-12195432.951947488,-13308844.49756004,-5005368.754635859,-2825069.8625161913,29801765.363054633,171380.3842006029,2033990.976037341,-2050717.243500824,5210734.336272037,4744699.519356848,-12172199.202217003,2830977.4566067164,13643402.433952838,-10879317.957103612
1,-12239303.205485325,-13271259.898492405,-5132608.14008642,-3646813.260323432,32120346.29690111,1587998.4027913504,1080298.1322380076,-1602108.3397699697,5070111.529426807,5000366.626350821,-11261031.356056884,1488472.8286385124,12330372.901815647,-11524842.517947815
1,-11693778.993866842,-11442120.226766175,-5109639.3357839,-4876995.852508395,33872799.72771559,2460494.353729119,-760927.3998965814,-1315822.1466724111,5243966.423622583,5194603.3798509855,-9879258.780672768,-504252.91100653546,10654499.387014078,-11843567.624758748
1,-11020593.45112113,-8515027.01192113,-5084647.764093558,-6125994.52859424,34612355.76671236,2624750.436329441,-2444641.3340949146,-1607178.4562605456,5549087.880900414,5275639.713562232,-8733644.427273102,-1988657.2741645612,9265525.599635195,-11806975.149616456
1,-10596703.995288037,-5713262.20948368,-5173322.822525128,-6792799.307719186,34371165.908049375,2028492.7308103188,-3166766.1193680516,-2692825.3281773147,5604445.019163547,5301515.765518402,-8435626.772011485,-2069483.8969332715,8750448.162385577,-11415277.134421065
1,-10407968.602581836,-4162505.3807025515,-5267002.544393956,-6433649.586701421,33516435.894072123,722809.6531793966,-2762457.417387813,-4428107.256743129,5066904.586492269,5340304.728039026,-9243824.504272986,-549514.7740096486,9309837.044169027,-10701261.839158503
1,-10042647.243310593,-4324105.671265247,-5034452.991820065,-5091179.88296571,32447931.761859734,-1136202.8682563468,-1726297.4859406517,-6296618.589045006,3864939.9524283125,5377261.142536113,-10972946.77860122,2054251.142811948,10642465.462559585,-9762397.950990858
1,-8991338.513170427,-5784485.126548071,-4134574.1361397607,-3352246.64554709,31352930.892859694,-3275559.442454155,-846606.8833952575,-7588301.715544391,2285519.358236835,5297449.956325742,-13105926.422347628,4835095.664250975,12086075.732394215,-8778032.71892068
1,-7059810.958953669,-7496857.649326021,-2508244.3453357383,-2061104.714541984,30181543.55354216,-5309192.714648578,-677102.8108443564,-7702589.1345390165,858178.978186121,4957163.245746971,-15043712.587401025,6915574.893565298,12922077.549353298,-7975923.304803459
1,-4623953.449043386,-8326075.334651472,-549936.4376662237,-1832672.4973042533,28844538.033947926,-6790306.086594722,-1167934.382060802,-6436645.8526431285,101439.84220260673,4295350.247934915,-16362866.900485994,7725377.845423739,12678646.675337186,-7554961.704396391
1,-2547801.7227734383,-7596136.0916809,981001.7900911737,-2651975.6571606346,27471447.616301708,-7323697.110369505,-1681355.0435990475,-4110930.8800602485,276716.9872383121,3408753.926829699,-16957692.12085456,7052200.682359543,11291928.092407031,-7612460.468729131
1,-1787725.1677033522,-5363349.318967263,1297022.0751841485,-3816947.773694214,26509606.2070402,-6709737.074742242,-1382542.7733050443,-1454955.6594032596,1286523.9236423494,2537786.073117696,-17013308.165720094,4946753.681683459,9079123.969507946,-8128249.996640321
1,-2894643.9515345227,-2311455.374349872,178.28525586640163,-4291772.310711412,26541014.786554843,-5057646.413092543,232597.15277061437,706834.7620785257,2764214.3852402414,1966527.798699877,-16846879.762420565,1632387.0158374668,6575821.632571709,-9017178.006900229
1,-5690022.250877747,622804.9758087993,-2649122.0190987783,-3295600.3872526996,27890203.610542625,-2801104.9201388867,2992989.3635770516,1825139.2429216914,4288088.205763083,1892249.2534634706,-16716150.399827927,-2490976.886285206,4337878.376242191,-10206376.164837664
1,-9296478.651893666,2659752.501221387,-5775123.950984475,-800225.1225590794,30267142.58006266,-583031.0437214455,6098328.630758432,1873241.5593643978,5583996.906299126,2335964.3117941525,-16698105.823173592,-6787156.175954657,2790630.2385820067,-11668935.959795253
1,-12509712.697399104,3413516.5856551835,-8241868.191512026,2357523.9816209967,32714640.508814815,963903.7222124579,8525337.991167739,1349052.6683426576,6598658.139196298,3138727.516687322,-16690543.856367206,-10395710.28684534,2152618.4320024922,-13376144.513576288
1,-14318500.737503408,2888808.770712085,-9153851.756610684,4840490.369251378,33974486.43378976,1457779.1167059967,9549600.590382338,1027855.2374221064,7416810.12470202,4038220.369699165,-16517582.094525559,-12418988.918912906,2413446.69419611,-15198574.1993084
1,-14312673.666264271,1327968.879225759,-8256344.423032909,5483028.038588358,33131033.218003593,923284.2650276871,9075848.083830534,1582776.2672734836,8099295.263384741,4778730.275656986,-16066451.841106063,-12261716.452347882,3336980.8256090973,-16841758.733849123
1,-12793663.193293147,-932600.7722141872,-6040259.166545739,3923945.1371013056,30188672.621873137,-214603.07003752564,7594441.339975714,3252672.8595595015,8568584.406719275,5198210.121232347,-15373712.524400115,-9961570.091709437,4487493.892672736,-17897611.560933862
1,-10565395.241188852,-3492431.4515401716,-3506985.0705092023,862346.5724515794,26226143.098818716,-1307358.5789695194,5813866.401700393,5712592.018396828,8631011.475425795,5259043.020844312,-14614972.247654943,-6301554.839832308,5304216.351253856,-18020521.50919648
1,-8538726.871263074,-5826423.934311844,-1716071.4761939372,-2212810.272242956,22975866.205999415,-1759949.9146471112,4213610.552777711,8204274.474904655,8125327.630353338,5024394.589919146,-14009948.72376286,-2584971.3298858646,5245470.150722441,-17140041.08236906
1,-7350536.145046222,-7256373.1804169,-1336101.8228335942,-3698958.8301852886,21997197.739596095,-1289082.1992179095,2799319.041609208,9861243.646506192,7091077.511549923,4605785.23785118,-13701060.021699658,-134837.54083595183,3981174.271672401,-15568847.708549479
1,-7158459.022987706,-7072343.127707672,-2402128.55151361,-2633210.0035888716,23865104.182035588,-48676.51218083162,1203051.2588062626,10073886.92814347,5823901.668356339,4109158.8168559046,-13674502.094306506,257883.28809212684,1559630.8588920708,-13903297.688896568
1,-7664622.847918486,-4811876.8157621585,-4369556.4856218295,846192.9369342226,27823526.66718987,1433758.5998032005,-952885.350032942,8726948.087538444,4751226.621276788,3593921.1124444935,-13765355.672812285,-1330460.0232559692,-1546582.042167283,-12734234.787616065
1,-8314087.702022595,-566664.0294409343,-6409286.173550366,5553948.343495225,32122833.30068531,2482583.952862387,-3677051.6031790343,6209532.375572414,4182960.8476731097,3048686.9003549633,-13741048.217899168,-4001542.5045146723,-4573115.382110843,-12317750.107925791
1,-8557129.362657329,4880124.71749404,-7785772.067227711,9797448.570113648,34891615.56514342,2562877.4540786566,-6470221.018760009,3210289.3126589647,4089562.6248725965,2388496.586844939,-13417371.836275589,-6433912.676558463,-6746052.22149792,-12409955.648229243
1,-8068907.853816579,10221069.671746865,-8142123.941462464,12138246.841397578,35090936.61204144,1507776.4039010732,-8528335.514319383,410822.7265691172,4064830.1819195086,1484867.591493829,-12748006.888039237,-7437410.038343843,-7596785.647672291,-12396980.145415623
1,-6860878.041216285,14069923.407664204,-7580992.348129192,12010300.17511219,33039840.075836465,-411195.22338135634,-9172762.438766213,-1770068.169723993,3529677.7326922603,236225.94519040175,-11845564.133370383,-6405892.990110989,-7158240.274549192,-11680373.717247922
1,-5263593.30916258,15493488.062014682,-6535584.435645898,9907847.567081625,30225554.278927498,-2595760.339393092,-8250215.479574306,-3266587.215240551,2082073.6134938449,-1336899.19037695,-10927728.380266491,-3486235.210402319,-5939481.81338838,-10106878.14806707
1,-3794675.0587743684,14373048.490512274,-5518774.208017903,7070738.742448622,28499166.446769822,-4360545.902785437,-6260280.767169009,-4268935.287216322,-208989.75192146865,-3019194.789359879,-10217419.89479401,562863.3956891758,-4685905.585151417,-8171095.830230076
1,-2952013.5813902994,11418167.937677866,-4880610.21075739,4840395.064865699,29091684.488211904,-5194896.938786757,-4130433.803386655,-5016308.248403105,-2757662.679691798,-4411500.324630397,-9844892.708536863,4705748.832211994,-4043729.657904331,-6823948.16947987
1,-2997730.631171052,7835885.149233812,-4684242.484830224,4015400.028060518,31979613.78069766,-4937637.162796246,-2765343.697489758,-5609644.42007649,-4723427.416284924,-5060145.673046612,-9795535.173940372,7984110.182802067,-4296646.1385606835,-6944656.342597695
1,-3817606.327299923,4832929.983040128,-4744122.847294562,4526486.831890192,35932755.952189155,-3799573.1958457767,-2623381.130006461,-5952503.300895006,-5457958.538583078,-4675110.338876234,-9924130.352464968,9756006.831785752,-5300297.101965717,-8753496.465673497
1,-4934196.058819811,3196467.442824852,-4791682.578495218,5582042.698163071,39202495.07882083,-2237249.8022984997,-3546309.759950781,-5846081.188391179,-4888184.73507704,-3337563.5564361303,-10026618.660480706,9777011.236108242,-6630327.830347742,-11519802.285619888
1,-5702236.175559175,3127430.787252578,-4676440.273664183,6191725.133254247,40465873.9040404,-742480.954731166,-4911582.9722110825,-5168714.184053476,-3602181.5158977844,-1569818.8046118014,-9937156.64003905,8161724.586352289,-7845338.119384924,-13790804.770746874
1,-5628257.6405871585,4343438.58452296,-4496330.60762857,5779915.130572035,39516075.99527066,360388.0338514098,-5990880.556300976,-4017577.494246648,-2562002.9260151936,-187892.34581754202,-9609537.68276558,5292786.604609085,-8712939.431365985,-14087185.66409849
1,-4671710.751977305,6327318.257866388,-4584342.285681619,4552775.275513769,37343954.5337989,1031147.6808612165,-6295480.298226269,-2712659.931623485,-2582384.315910363,32463.325048448143,-9149050.47842518,1722872.6342314696,-9283556.031318301,-11731347.614157675
1,-3358254.0347246747,8554340.687099507,-5346457.157025368,3410387.0015979917,35592525.24633778,1508551.1647145143,-5723462.798078011,-1648302.7233945418,-3860887.7548166406,-1271289.4938072637,-8780038.009484647,-1923330.4654441252,-9795724.503797766,-7358057.159176745
1,-2602963.180290763,10597720.271853112,-7021132.692614965,3438087.3528627553,35695244.57843673,2196518.1501677646,-4463537.392929726,-1075255.6366337652,-5832098.58181257,-3833431.6478428748,-8759463.607848184,-5058820.355523134,-10494744.862839416,-2786122.3949849796
1,-3285003.1038622796,12127053.824310256,-9479112.020358752,5245826.293809167,38153630.03436481,3490160.053153169,-2762205.260946389,-946929.4156248204,-7445609.066057927,-6839667.588375611,-9269127.26480142,-7253364.0985934725,-11484687.340739403,-250965.0462773214
1,-5764377.616356377,12891492.881351687,-12177377.621071167,8524550.931364253,42307085.3160448,5602735.580900573,-731674.2683187838,-934239.4399317492,-7729279.595500303,-9289569.759422617,-10329529.86190465,-8330872.704648149,-12694282.393923314,-1344661.4485841868
1,-9596404.113873223,12766513.116089607,-14317999.91146552,12090259.256372394,46672730.83768568,8448056.026487974,1671334.9053911518,-617771.7985418655,-6332117.788414916,-10470252.14730685,-11771030.548732046,-8400513.063652275,-13952263.058781717,-6190541.711258397
1,-13627455.009559445,11857356.133697463,-15165312.899633944,14429425.783813031,49645008.29381288,11615562.377339091,4492703.801424367,242182.67066965287,-3744164.39915951,-10292880.809129117,-13274939.52758413,-7795724.892581983,-15096558.785927705,-13285202.73718065
1,-16468163.467653496,10566035.502569187,-14387831.455835797,14476871.615661869,50192892.66553664,14452743.543550152,7572363.215732507,1513656.5438956295,-1066230.79981111,-9303449.796413094,-14468419.615552157,-6937173.078676822,-16031467.732468322,-20111827.140535183
1,-17132028.65281237,9516600.693738345,-12260514.701708466,12207626.046764862,48237293.841894545,16241988.786687862,10438124.48878309,2702397.0927815405,548188.887487566,-8352678.556497482,-15035549.02444507,-6174499.346378611,-16700901.537912197,-24236048.018383622
1,-15516987.065059453,9315345.472429868,-9612017.4374906,8702244.410292763,44583462.3654571,16427182.605213104,12396551.966257278,3177566.914839106,475659.8992079574,-8102869.095802746,-14802385.364622202,-5673528.0895232735,-17021225.34685408,-24349001.23434483
1,-12468632.870982096,10246596.650777958,-7515124.59538214,5620216.568199658,40504433.737893604,14817641.883203132,12793490.72238214,2504130.7668884383,-1082123.903780759,-8648933.85579288,-13768104.448958011,-5393256.062700348,-16855708.048789185,-20754626.542959515
1,-9375069.737286424,12080511.564891784,-6844482.821440209,4343353.001595495,37207474.6249191,11688654.22246539,11313821.439395802,703928.7415047573,-3237942.101450083,-9472904.550381457,-12079833.998836774,-5153122.940754878,-16082630.364956746,-15091757.079665758
1,-7493586.3792459015,14132953.432686893,-7899556.168217282,5247250.650984413,35417354.155719936,7722200.006581813,8165712.129757754,-1702608.358380494,-4898539.673364098,-9763427.64502203,-9972500.895617088,-4749547.426035372,-14729582.053395752,-9476121.77645279
1,-7358122.376449491,15579236.98518124,-10270476.355473705,7505771.484211196,35209009.87078325,3788577.5555935013,4056092.784912245,-3908010.0902675376,-5310551.503621278,-8919628.375093829,-7704983.497158258,-4062444.302222384,-13074896.98270113,-5529575.197693817
1,-8576057.146951405,15865819.763981111,-13015085.850756504,9548982.885988936,36093639.54372957,640869.2499321919,-31676.86545708849,-5180909.972892856,-4382249.845192642,-6946171.009896142,-5516274.306410593,-3103970.320887344,-11611041.001771074,-3785875.1234161668
1,-10111383.187154118,14989830.34964831,-15068482.846783385,9931747.780841328,37273435.01186473,-1353823.1649907306,-3159881.4706685347,-5197266.332791767,-2635907.429094721,-4503059.806175145,-3606592.9082379695,-1993720.8097502596,-10841090.64385793,-3723804.542849806
1,-10885587.52120019,13481095.645428462,-15694860.406545432,8134269.470508604,37954352.322057225,-2322444.15161112,-4730072.077417411,-4173169.2464252035,-860419.6742954613,-2571556.0376367224,-2131164.087915961,-879969.6210903708,-10997516.466875112,-4322958.146981296
1,-10357465.183091845,12093134.8214497,-14772750.701770643,4848103.842383369,37624371.46306043,-2773020.2376624895,-4648842.090190828,-2738671.8276681537,309796.4259587773,-1923106.329273662,-1189964.9622653362,149293.27029132802,-11853951.279825851,-4766927.211394801
1,-8764860.071489371,11385121.408342635,-12789408.116651062,1589393.001284432,36232844.00735625,-3304583.111647406,-3326247.1897979598,-1627695.656058405,650938.1546782227,-2697987.9182595443,-807508.8149986292,1116481.8607432141,-12779315.051331455,-4877172.502170923
1,-6910824.2677152725,11445120.6974896,-10564299.548169862,-137917.10152270636,34226100.5166147,-4277596.1750852605,-1524359.2296324794,-1349524.0072411154,328095.83175133605,-4341335.45448228,-913837.6504691422,2132004.02385696,-13054704.72525848,-5056922.910135996
1,-5637704.975199296,11918926.880128777,-8850624.727912111,347135.4870808212,32413156.184761915,-5612570.821793317,-108984.07349991245,-2005078.044078818,-339457.37701477844,-5938331.954534621,-1347082.7630824319,3298740.63465558,-12305598.317780139,-5832526.131731669
1,-5305424.270541323,12318140.142550359,-8012312.7125906795,2571978.8633008823,31673584.98051558,-6827461.940535322,226475.60162211183,-3322241.719347686,-1142135.2177882118,-6756496.330449583,-1890358.7084606276,4584305.943883765,-10800213.59711964,-7317841.035039625
1,-5578262.1226552725,12403540.283109084,-7921456.305187082,5231516.673714683,32583908.75498798,-7303163.591699111,-810177.7389627936,-4863169.083665516,-2096085.0936185,-6677860.96790947,-2335262.529872225,5734014.680318768,-9405487.494492883,-8962055.464067657
1,-5638912.937676986,12388402.542885665,-8100827.926768032,6955201.372215271,35103928.47604498,-6642226.165290634,-3001472.2480294504,-6271417.670109166,-3352274.294393548,-6262859.176605428,-2544911.698453666,6297961.752765303,-9170191.87553262,-9760400.151051695
1,-4699545.249251114,12817360.401984515,-8014564.543489738,7065626.321309446,38482475.64208621,-4927576.530555311,-5683617.3652146775,-7421377.200395388,-4985333.146412059,-6400102.201887785,-2485316.3956811144,5800950.379125469,-10727735.353899658,-8821244.757718792
1,-2510783.7776624616,14183722.301950496,-7349549.641221098,5896751.024947662,41476450.56693899,-2733379.558445719,-7982246.197597906,-8402894.901185604,-6827125.157783959,-7739916.827847335,-2209374.8326224056,4004431.0576617992,-13846489.753718896,-5959594.303413559
1,425236.2297082285,16522726.902216319,-6154637.8583504055,4514313.747458858,42837348.27004597,-870855.9610171033,-9149526.292556336,-9374789.99482413,-8473723.49948307,-10241257.296739904,-1804608.778874223,1133782.9696652743,-17408636.036293298,-1955372.4009561848
1,3060783.905879414,19248377.96062792,-4791148.476697168,4036718.4577611005,41869599.90344266,1329.9044276176335,-8871550.564276064,-10393240.784361009,-9472790.60149428,-13102237.12245314,-1337180.9528549975,-2076769.1222555542,-19877955.73469184,1706063.2269453448
1,4315671.0218534,21363714.133169103,-3743840.639063731,4976539.385110717,38792619.10014996,-307320.7879611818,-7406445.731230498,-11326181.599703697,-9574027.145582939,-15127107.186571762,-825577.5870516514,-4603922.261421068,-20039523.85840794,3505403.15671129
1,3619773.7259150753,21949305.954967294,-3398572.3359948285,6983532.343816524,34701532.146631464,-1451167.8882309056,-5476781.193870549,-11904965.409920892,-8879677.626766026,-15332724.608480286,-255302.2961279078,-5566389.294400487,-17621361.179938305,2632797.662399834
1,1198102.8856816841,20658664.562067565,-3890475.828809258,9106105.105327401,31106103.286275458,-2766553.3184886966,-3953872.8685953543,-11878789.3852651,-7793673.912836495,-13459672.093541017,384176.40261067887,-4675091.866018422,-13449479.828947624,-585543.1394608123
1,-2042091.9383856934,17931137.22124514,-5076385.895497081,10371669.580206878,29245033.136499982,-3654259.947958577,-3478795.0408849125,-11176981.616659906,-6796211.512192159,-10106586.309255255,1074492.6611866124,-2455208.3892559884,-9032347.78735824,-4803464.161690802
1,-4947637.789084242,14787941.091867544,-6619876.859916646,10313280.383599311,29505434.885074925,-3910495.882045808,-4202035.714793797,-9982010.25336345,-6182230.30834819,-6419797.09244798,1777778.2752334925,-75709.01751520645,-5787624.5267016655,-8257017.191558287
1,-6641122.499363686,12315976.582477247,-8131081.584319928,9137821.850227844,31243935.806188717,-3818141.0634611133,-5762932.116753017,-8669060.383876964,-5925244.209461308,-3519858.326462994,2471406.45232074,1180071.2242541201,-4333149.598938932,-9548622.132830732
1,-6863656.416485995,11125746.2357778,-9294957.688349947,7481828.298930663,33113040.61017998,-3945425.8789138743,-7501619.678418905,-7642675.808833469,-5747734.178250899,-1986996.124383703,3172462.883643574,557513.6545143424,-4239243.222309701,-8228282.687099868
1,-5989771.938287197,11085705.195257487,-9945264.414904142,5964669.352090377,33740095.86798245,-4766254.626140218,-8774235.011655865,-7155037.504648341,-5348075.198648003,-1679452.4035310347,3916970.008830253,-1755600.31885082,-4384646.506331267,-4909102.501163677
1,-4748037.807873378,11475543.874771437,-10075543.288201194,4855537.545268323,32421811.055053227,-6320015.903775419,-9199186.438134808,-7196835.925788363,-4635702.939952085,-1955390.8804876034,4691555.900012594,-4695718.899777533,-3713161.8792894986,-904854.4118256972
1,-3826078.318497418,11459107.339843627,-9802758.999480238,4060138.6261139954,29484957.159575965,-8110008.134775218,-8722758.840771917,-7510963.232650474,-3822283.808358709,-2134355.964170775,5360937.084381914,-6871067.942388619,-1950222.1537095143,2385357.184887379
1,-3573096.144119797,10595238.762902403,-9307553.219265208,3390188.240751357,26131992.64039149,-9308999.958993718,-7514860.419325655,-7716392.605273743,-3308146.257312226,-1906686.327036807,5659567.841391368,-7314642.827640745,150300.30138871816,4023089.97214256
1,-3931261.258724234,9087293.68615774,-8772697.441653682,2874269.1837109705,23850515.53153525,-9171065.678313864,-5809041.700024597,-7478703.516098006,-3432431.517707452,-1449865.3435485442,5293269.848354756,-6027694.757423031,1198512.498594623,3768900.465140074
1,-4586950.040575596,7628239.500786133,-8335821.661406111,2842928.0967175574,23681403.728045862,-7434810.165648442,-3817101.352811007,-6649106.597453999,-4242265.54069349,-1203476.6586933886,4129249.892293972,-3991832.1435492937,3863.842824686461,1975679.1001631161
1,-5216601.691150554,6936190.666556956,-8066890.012258275,3690626.6693000123,25702734.73442497,-4506500.226798204,-1769385.721303457,-5317871.352565948,-5427095.021126581,-1469401.8226182344,2378519.4022335904,-2617513.3285635714,-3607673.350020445,-709138.9461102575
1,-5670807.877743026,7256366.69007881,-7973953.156615759,5464503.565801905,28969454.677612014,-1327809.4864642513,-15689.184423729566,-3772428.577494987,-6464666.00841497,-2109969.9843371618,645815.8042083766,-2924442.8248192496,-8467472.624973096,-3608901.012414873
1,-6001538.366310352,8125593.8585174335,-8030853.127063413,7582530.043060531,31920107.286819328,1005216.3792619396,945343.4233738012,-2389674.477222719,-6896384.131835963,-2550777.581223348,-229913.67780234237,-4921158.113710943,-12449303.867065426,-6109187.6487985235
1,-6345380.652146441,8544970.085602622,-8209869.185072186,8930574.43644202,33042233.6148238,1686313.8816559545,603804.5681634287,-1509415.6138468375,-6571021.978772544,-2099710.7823271938,488296.1710799862,-7554669.371918727,-13405218.98222699,-7600906.191456896
1,-6762374.31697633,7473811.359327802,-8497439.509980844,8354599.184240287,31484439.97348322,502943.4720118561,-1284295.9702654625,-1330565.6745788918,-5714317.642257133,-390813.75492285186,3068495.214222752,-9280550.05937053,-10192012.014784317,-7431920.260149558
1,-7146630.983016264,4376814.675180333,-8878934.113519356,5298195.343363881,27355149.851257995,-2120678.5234075836,-4435284.386495208,-1854372.2148633646,-4785527.803250016,2323995.161527824,7104834.80195573,-8941034.782076212,-3271561.9976882064,-5024965.028969551
1,-7268251.476597696,-472569.22813861095,-9298629.615155673,211760.05816478073,21613774.80383901,-5332193.1926738415,-7985136.932817776,-2882251.9075990417,-4207789.654458702,5227971.697095506,11608358.460017372,-6448024.905701804,5417062.107741448,-184080.2137149774
1,-6916331.869810456,-6093287.145730948,-9622722.29972875,-5534157.553863897,15646697.581022877,-8194532.210911729,-10747098.555897048,-4066137.515977366,-4132709.1691528973,7326061.319961955,15383097.305746503,-2868615.3901692573,13249838.726536233,6569896.777974786
1,-6047057.994937547,-11241304.212874932,-9640796.704517359,-10220716.517368553,10738403.635758251,-10009804.88832168,-11701236.845762769,-5003952.943485531,-4377790.583312766,7953263.02677532,17522191.80070173,148245.9973479908,17988746.641878717,13891809.58811913
1,-4838250.512531094,-14955085.626238192,-9125277.961338498,-12546280.614565624,7655582.224178877,-10505993.036534332,-10478855.742438536,-5364080.039590642,-4570861.587767808,7117704.8500464745,17782688.131041978,1280437.1247051044,18630849.130306665,19917423.660725627
1,-3611360.5607278016,-16918073.326810647,-7934105.669986092,-12182223.932727508,6477533.436522611,-9846198.977364913,-7572853.0600210065,-5006405.645150248,-4410106.0254092645,5485767.036744753,16650000.650295667,252367.58369013018,15671727.932888418,22943930.558055893
1,-2665223.9490175177,-17471000.21547676,-6108175.757247628,-9839194.02349337,6686831.110322017,-8493068.717302594,-4133721.4113673423,-4051389.5791019304,-3876678.1529656737,4022917.197046533,15060938.095172271,-2052320.874764198,10721017.425968131,22199068.85222806
1,-2121370.6398558947,-17308404.05377651,-3904973.9810719285,-6843490.438082053,7438296.681442068,-7000674.464655155,-1434189.7977276866,-2850019.731264596,-3263064.5011531417,3498074.1391754416,13932517.974352999,-4148735.0094750994,5711624.215913694,18294409.606177878
1,-1875152.7215416597,-17061295.271542642,-1735147.8004164763,-4487500.314483713,7883014.549776622,-5810978.910790593,-274514.56734164956,-1840059.3912856132,-2990503.7093311157,4128206.576822608,13743042.941641454,-4848803.943588671,2102529.358537915,13067163.203543535
1,-1684173.3418750141,-17008285.557331733,-19554.65651663735,-3512380.828283457,7435236.563773723,-5116584.638983699,-640983.3245144996,-1331634.4809589304,-3318836.141267079,5547855.978626897,14375792.46534907,-3968347.5078217154,427159.97917904204,8814735.490624033
1,-1342894.520056883,-17055999.18575631,968166.137773797,-3961421.5366857336,5911908.890942762,-4828251.933630924,-1793874.1941162888,-1319006.776954258,-4125058.2410836536,7094627.954267069,15284997.99479801,-2424930.6694345055,331892.07500812446,7259844.004928788
1,-838859.6990567718,-16955128.890189942,1194437.8764149272,-5398010.5910268165,3524520.8466275004,-4656723.843394098,-2724412.216174307,-1427973.2354103161,-4897042.0381760085,8222782.2103981385,15865695.25724921,-1668850.7580428356,1000851.2863953065,8758713.794386009
1,-393858.153333532,-16579191.38330239,846073.309683776,-7273424.945926496,747412.8827150901,-4281675.031435384,-2719561.3387788315,-1058497.8817188244,-4969364.335197077,8796822.973847542,15805908.22150474,-2785198.1286454853,1697416.5469154797,12167137.263671387
1,-358966.51459866826,-16070788.84351116,210790.2359300264,-9183410.032008473,-1880310.9438653125,-3541553.9271927807,-1723406.3824065367,316208.3178865281,-3885049.6391863157,9105551.145447185,15227531.621577956,-5801420.152719717,2137687.9806574774,15447137.13398979
1,-1018048.0907178824,-15762496.913177568,-473880.465188916,-10882032.345751056,-3945209.0479457425,-2554634.1150611974,-309466.3339521744,2831255.5558331576,-1683213.9306055456,9614076.064781176,14558592.73589393,-9615350.49570864,2534134.4702693694,16706272.911331095
1,-2410065.785908956,-15936782.78790496,-1118245.7021192869,-12124209.241032995,-5273795.631094847,-1696121.432249851,697615.6239079874,6067594.176221861,1059666.3160332416,10625888.802193778,14239235.730414923,-12593698.369294295,3333395.9519270635,15129522.348906336
1,-4273306.699273954,-16599297.136988448,-1772941.237431661,-12539621.881254666,-5933933.643694023,-1417436.921065475,720672.384505118,9163522.263623912,3477951.9095414295,12068162.988336956,14452259.97588083,-13496695.25015635,4826504.293142478,11324158.95483385
1,-6147230.90691989,-17431940.520274933,-2528815.5344357225,-11710182.785024686,-6136906.057001581,-1981120.4907381425,-234806.60832889422,11182125.588107808,4836008.331840993,13523977.944079667,15038264.636630591,-12193681.769091222,6863490.1295335395,6920818.041622474
1,-7578200.646586741,-17972010.851366296,-3392709.5436551548,-9453911.140105262,-6101038.135850293,-3250506.887064533,-1585302.0427559728,11569154.508532366,4896623.162885526,14477423.22596207,15630378.83036724,-9757398.757197892,8839568.349991398,3677929.9268435463
1,-8315967.019394158,-17909785.325599235,-4220845.955074955,-6130101.958821235,-5954934.918882469,-4669058.686397778,-2491782.687280068,10461898.875446925,4033871.444748957,14610567.681425236,15905194.125211319,-7885656.323316719,9972660.959290756,2593939.788643423
1,-8394186.201740323,-17310013.419023223,-4754594.502414769,-2711498.0510215256,-5730874.376585113,-5476283.68245691,-2305401.0657216352,8662470.183996528,3018938.468731257,13969715.04052406,15781002.417229678,-7983456.488513637,9733686.841968592,3500494.835027014
1,-8057277.18329012,-16601897.022091106,-4739985.147931825,-480608.56817170803,-5438522.029745521,-5074386.688683032,-888611.9147375962,7254244.487061949,2586755.930083114,12908971.562992861,15439038.116479343,-10423018.871492967,8198879.774313795,5316417.55521281
1,-7586486.142229725,-16325704.510547627,-4061674.8991808747,-440263.5033015014,-5151919.665017144,-3357557.529924228,1349207.8774048716,7036237.875288435,3017024.9387043063,11859787.153098611,15164429.875701422,-14382512.356267845,6116344.696499451,6763086.189771839
1,-7135640.409670817,-16782782.23399033,-2814417.960984457,-2737229.93820242,-5028306.715670471,-812385.0555257383,3695603.4476439897,8067959.7134965295,3962510.901455208,11076656.266585594,15120784.298749667,-18323817.468169417,4613836.236279976,7097228.918002678
1,-6676932.263461811,-17807791.629153546,-1273534.6438031173,-6442654.3161002975,-5221919.24202725,1690708.784899876,5504162.440408796,9582043.015372885,4627018.508127268,10512664.518248575,15212137.760961086,-20809902.328301243,4661901.328096274,6442098.066732497
1,-6084881.234532613,-18817981.32877194,215164.28636923333,-9870802.568478974,-5736471.9971927265,3323057.6322692162,6484050.7965557445,10340272.917824823,4204685.526162077,9889687.162365856,15126793.788289579,-21191456.64697024,6552668.330724401,5565213.33538556
1,-5295943.492897257,-19129349.451143026,1363408.6939149674,-11330339.05147523,-6323600.1185685545,3714596.0516792927,6768838.370817065,9271567.30552525,2345908.0258310325,8907783.579444446,14539818.31572068,-19800017.728159,9676142.806195686,5291186.693114648
1,-4428709.434289504,-18363609.16136255,2022827.194660461,-9951126.502067678,-6530749.5225382075,3126096.1891724034,6754873.628161909,6067055.897590463,-604412.4241247631,7460925.36260594,13349419.173583057,-17594051.423809104,12746329.853679858,5945131.168737718
1,-3770750.8197960965,-16706530.58152669,2193990.7097293986,-6160621.658460577,-5919819.323176878,2270492.4147807932,6821259.004149689,1413096.078679804,-3730248.13876337,5733606.795251337,11799222.192309197,-15523474.505426789,14402756.03427385,7177021.797976336
1,-3623254.3117885794,-14859589.702951191,1980225.1418476251,-1544597.5975525728,-4360211.120116284,1877043.9879628022,7093038.442212252,-3276634.0453189635,-5968122.133873643,4132586.533300822,10405743.462836022,-14018258.883704664,13903808.85926829,8258221.367878086
1,-4091970.8487218046,-13705592.426285716,1529474.6915897515,1863326.2222606763,-2222218.503862053,2246331.674582558,7369660.156062411,-6506087.260396885,-6607833.560766831,3105047.2062633364,9724756.101575624,-12894729.622030282,11554331.246712081,8635504.923017131
1,-4960373.28645517,-13876490.633711845,998866.7062238093,2524442.6654067775,-319694.0228169045,3058200.687053637,7243608.011506884,-7391813.668562537,-5608330.5227563605,2949204.1634342307,10081922.735207453,-11690208.844910348,8624546.900598902,8366119.10978147
1,-5744674.653348461,-15465566.206820302,544996.8961591596,109157.59448746609,422245.0787671241,3554403.8520171605,6335626.311249294,-6050538.134573227,-3571122.532212053,3709872.3647022485,11409849.694462,-10163836.218193097,6772784.578268255,8136801.375034432
1,-5927393.501777999,-18034468.300270107,314746.5556493362,-4364002.068685258,-567100.8963107473,3000374.8897479693,4521390.725407818,-3483729.1446092664,-1399983.6809367205,5189866.181496566,13271163.990284523,-8606781.74791192,7249123.600790915,8836793.397124896
1,-5254759.423325657,-20886698.392722003,410015.802634663,-9023143.93812968,-3151460.1795201874,1162796.4395972523,2037451.2877083335,-1030432.3901793981,160531.72666669445,7044456.174365911,15046827.843527885,-7741868.16963431,10284315.198085738,10941968.020924766
1,-3930025.6586421123,-23425223.66164191,827948.004693396,-12019444.93461108,-6463975.077799394,-1477645.7144046417,-582955.3088714296,313770.4475982806,862155.2843963756,8898133.598279553,16189177.940460034,-8269115.966461093,14980384.794840433,14096816.252163595
1,-2576092.3344028355,-25377996.01600616,1414616.5967397091,-12357327.11783894,-9263852.745374702,-3912479.15924252,-2714335.4478651625,350309.6451122171,1000903.1706668923,10437362.85350384,16420063.311756086,-10352401.377865061,19757447.20483707,17173781.415979575
1,-1959880.327791713,-26778768.663756408,1883591.9390685768,-10291051.019755775,-10512400.100065928,-5098721.23964493,-3892378.669579942,-325640.2119199745,1175059.4934948976,11467141.955781195,15797132.726732627,-13391597.23725008,23117591.35709463,18809919.997592844
1,-2604078.8920800188,-27760596.201563682,1923784.6466819374,-7125816.422682373,-9871271.413435915,-4492742.10673369,-4005073.982980407,-761750.6037154036,1904804.4136355487,11941422.677881645,14643277.167053979,-16252786.940850036,24324450.523093063,18136377.135695353
